time (s)	coil I (A)	last det (V)	int current (uC)
2407.471045	0.868982	0.175090	379.745087
2407.472027	0.511348	0.175090	881.888489
2407.472961	0.087360	0.175090	963.482361
2407.473863	0.083405	0.175090	1038.713257
2407.474799	0.083503	0.175090	1116.872437
2407.475700	0.083456	0.175090	1192.066162
2407.476620	0.083383	0.175090	1268.778076
2407.477508	0.083474	0.175090	1342.903076
2407.478461	0.083441	0.175090	1422.422485
2407.479374	0.083427	0.175090	1498.590942
2407.480293	0.083496	0.175090	1575.323853
2407.481182	0.083419	0.175090	1649.483521
2408.522953	0.857692	0.149985	374.811249
2408.523932	0.536407	0.149985	899.954224
2408.524833	0.088202	0.149985	979.424133
2408.525734	0.083478	0.149985	1054.637573
2408.526625	0.083544	0.149985	1129.074951
2408.527578	0.083536	0.149985	1208.685059
2408.528489	0.083485	0.149985	1284.739990
2408.529382	0.083569	0.149985	1359.367432
2408.530302	0.083540	0.149985	1436.224243
2408.531221	0.083470	0.149985	1512.933594
2408.532120	0.083470	0.149985	1587.973511
2408.533006	0.083522	0.149985	1661.973755
2409.513682	0.866602	0.171263	383.037903
2409.514611	0.578694	0.171263	920.644531
2409.515506	0.090234	0.171263	1001.404297
2409.516425	0.083445	0.171263	1078.090088
2409.517338	0.083500	0.171263	1154.325317
2409.518243	0.083434	0.171263	1229.832886
2409.519142	0.083525	0.171263	1304.922241
2409.520074	0.083555	0.171263	1382.795166
2409.520982	0.083478	0.171263	1458.593018
2409.521883	0.083511	0.171263	1533.836182
2409.522769	0.083470	0.171263	1607.791016
2409.523712	0.083511	0.171263	1686.541626
2410.565321	0.860958	0.149985	375.377808
2410.566305	0.529222	0.149985	896.132690
2410.567232	0.087748	0.149985	977.474915
2410.568125	0.083419	0.149985	1051.968262
2410.569042	0.083478	0.149985	1128.517334
2410.569970	0.083489	0.149985	1205.994873
2410.570888	0.083489	0.149985	1282.637573
2410.571789	0.083492	0.149985	1357.864258
2410.572704	0.083470	0.149985	1434.239746
2410.573632	0.083492	0.149985	1511.720703
2410.574547	0.083507	0.149985	1588.129639
2410.575438	0.083481	0.149985	1662.511597
2411.556554	0.862097	0.171811	378.460632
2411.557446	0.604779	0.171811	917.923584
2411.558437	0.088608	0.171811	1005.734497
2411.559351	0.083470	0.171811	1082.026489
2411.560243	0.083580	0.171811	1156.580078
2411.561173	0.083522	0.171811	1234.255249
2411.562114	0.083514	0.171811	1312.842285
2411.563023	0.083496	0.171811	1388.740234
2411.563918	0.083584	0.171811	1463.547852
2411.564842	0.083533	0.171811	1540.732056
2411.565763	0.083525	0.171811	1617.658936
2411.566684	0.083525	0.171811	1694.585815
2412.607978	0.886718	0.150110	404.343201
2412.608884	0.574471	0.150110	924.814331
2412.609812	0.089385	0.150110	1007.763367
2412.610716	0.083434	0.150110	1083.187500
2412.611652	0.083467	0.150110	1161.312378
2412.612563	0.083500	0.150110	1237.380615
2412.613456	0.083558	0.150110	1311.998169
2412.614392	0.083459	0.150110	1390.116211
2412.615299	0.083478	0.150110	1465.830566
2412.616226	0.083496	0.150110	1543.231445
2412.617118	0.083514	0.150110	1617.726318
2412.618067	0.083507	0.150110	1696.974487
2413.598926	0.863892	0.174284	383.567871
2413.599890	0.568517	0.174284	931.618103
2413.600789	0.088561	0.174284	1011.234253
2413.601697	0.083452	0.174284	1087.008789
2413.602590	0.083536	0.174284	1161.606812
2413.603527	0.083602	0.174284	1239.942139
2413.604447	0.083558	0.174284	1316.815796
2413.605348	0.083588	0.174284	1392.128296
2413.606238	0.083632	0.174284	1466.560425
2413.607171	0.083668	0.174284	1544.622803
2413.608070	0.083500	0.174284	1619.689087
2413.608962	0.083613	0.174284	1694.272095
2414.650849	0.880228	0.149087	402.264313
2414.651749	0.587340	0.149087	930.870361
2414.652705	0.090637	0.149087	1017.519531
2414.653604	0.083496	0.149087	1092.582520
2414.654502	0.083500	0.149087	1167.565308
2414.655395	0.083503	0.149087	1242.133911
2414.656339	0.083558	0.149087	1321.012939
2414.657238	0.083540	0.149087	1396.115479
2414.658143	0.083613	0.149087	1471.785522
2414.659032	0.083533	0.149087	1546.046143
2414.659977	0.083628	0.149087	1625.074585
2414.660883	0.083456	0.149087	1700.685547
2415.643607	0.866825	0.171517	380.536133
2415.644508	0.598813	0.171517	920.067078
2415.645477	0.089117	0.171517	1006.421875
2415.646398	0.083518	0.171517	1083.342041
2415.647287	0.083489	0.171517	1157.563599
2415.648203	0.083430	0.171517	1233.985596
2415.649142	0.083459	0.171517	1312.354004
2415.650062	0.083518	0.171517	1389.190674
2415.650952	0.083566	0.171517	1463.564087
2415.651891	0.083470	0.171517	1541.942871
2415.652819	0.083452	0.171517	1619.386475
2415.653727	0.083547	0.171517	1695.247437
2416.691695	0.885223	0.148108	415.169769
2416.692617	0.550360	0.148108	922.601807
2416.693517	0.089154	0.148108	1002.840454
2416.694456	0.083419	0.148108	1081.171021
2416.695378	0.083496	0.148108	1158.154419
2416.696291	0.083434	0.148108	1234.329468
2416.697186	0.083511	0.148108	1309.071533
2416.698135	0.083419	0.148108	1388.236328
2416.699071	0.083405	0.148108	1466.302979
2416.699969	0.083474	0.148108	1541.262695
2416.700883	0.083481	0.148108	1617.564697
2416.701822	0.083514	0.148108	1695.984741
2417.686527	0.879771	0.171215	429.328003
2417.687461	0.506942	0.171215	902.811890
2417.688363	0.088041	0.171215	982.224670
2417.689250	0.083448	0.171215	1056.243530
2417.690187	0.083445	0.171215	1134.431396
2417.691100	0.083503	0.171215	1210.670044
2417.692017	0.083496	0.171215	1287.235962
2417.692903	0.083452	0.171215	1361.174561
2417.693857	0.083547	0.171215	1440.878784
2417.694759	0.083459	0.171215	1516.159180
2417.695647	0.083467	0.171215	1590.277710
2417.696579	0.083558	0.171215	1668.154053
2418.733792	0.881484	0.148990	401.075409
2418.734692	0.589113	0.148990	931.276733
2418.735629	0.090619	0.148990	1016.186646
2418.736535	0.083500	0.148990	1091.837402
2418.737433	0.083533	0.148990	1166.849731
2418.738319	0.083452	0.148990	1240.788330
2418.739265	0.083573	0.148990	1319.848389
2418.740172	0.083551	0.148990	1395.629150
2418.741075	0.083518	0.148990	1471.046021
2418.741962	0.083474	0.148990	1545.087524
2418.742916	0.083525	0.148990	1624.770752
2418.743821	0.083518	0.148990	1700.354614
2419.731975	0.906361	0.171827	445.023285
2419.732918	0.501101	0.171827	917.561646
2419.733808	0.088074	0.171827	995.947266
2419.734722	0.083481	0.171827	1072.249268
2419.735667	0.083536	0.171827	1151.191162
2419.736586	0.083518	0.171827	1227.944214
2419.737483	0.083467	0.171827	1302.813965
2419.738435	0.083481	0.171827	1382.288330
2419.739379	0.083452	0.171827	1461.067139
2419.740282	0.083448	0.171827	1536.421143
2419.741201	0.083405	0.171827	1613.069946
2419.742128	0.083518	0.171827	1690.491211
2420.774896	0.879628	0.148438	412.545380
2420.775809	0.555663	0.148438	919.865540
2420.776696	0.089890	0.148438	999.598083
2420.777652	0.083416	0.148438	1079.343384
2420.778593	0.083459	0.148438	1157.878784
2420.779510	0.083481	0.148438	1234.431274
2420.780398	0.083470	0.148438	1308.552979
2420.781344	0.083529	0.148438	1387.571411
2420.782270	0.083511	0.148438	1464.902344
2420.783171	0.083522	0.148438	1540.155396
2420.784091	0.083481	0.148438	1616.958374
2420.785021	0.083536	0.148438	1694.647217
2421.776080	0.858007	0.171754	378.380920
2421.777067	0.494952	0.171754	866.898926
2421.777992	0.087455	0.171754	947.794678
2421.778912	0.083401	0.171754	1024.523437
2421.779799	0.083474	0.171754	1098.564941
2421.780763	0.083492	0.171754	1179.051636
2421.781678	0.083481	0.171754	1255.437134
2421.782566	0.083536	0.171754	1329.617432
2421.783500	0.083463	0.171754	1407.572021
2421.784417	0.083478	0.171754	1484.121094
2421.785335	0.083430	0.171754	1560.709961
2421.786231	0.083445	0.171754	1635.476562
2422.816269	0.903230	0.151149	455.227936
2422.817180	0.519716	0.151149	928.688843
2422.818101	0.087766	0.151149	1009.521423
2422.818995	0.083430	0.151149	1084.108032
2422.819935	0.083463	0.151149	1162.563354
2422.820835	0.083511	0.151149	1237.723022
2422.821732	0.083507	0.151149	1312.628906
2422.822657	0.083511	0.151149	1389.876343
2422.823572	0.083478	0.151149	1466.258545
2422.824465	0.083518	0.151149	1540.840210
2422.825357	0.083489	0.151149	1615.312256
2422.826307	0.083503	0.151149	1694.640503
2423.821258	0.858113	0.169454	373.279083
2423.822207	0.583949	0.169454	927.446655
2423.823114	0.088967	0.169454	1008.139954
2423.824023	0.083463	0.169454	1084.007935
2423.824911	0.083540	0.169454	1158.191528
2423.825856	0.083602	0.169454	1237.195679
2423.826770	0.083481	0.169454	1313.497681
2423.827670	0.083558	0.169454	1388.700195
2423.828559	0.083536	0.169454	1462.963989
2423.829493	0.083602	0.169454	1541.048584
2423.830396	0.083533	0.169454	1616.478638
2423.831288	0.083459	0.169454	1690.924438
2424.856275	0.872545	0.153857	388.282593
2424.857182	0.592811	0.153857	925.962402
2424.858068	0.091124	0.153857	1006.698486
2424.859021	0.083544	0.153857	1086.315674
2424.859942	0.083503	0.153857	1163.222290
2424.860842	0.083522	0.153857	1238.391846
2424.861770	0.083518	0.153857	1315.896606
2424.862675	0.083569	0.153857	1391.526855
2424.863576	0.083463	0.153857	1466.727173
2424.864464	0.083463	0.153857	1540.842407
2424.865410	0.083514	0.153857	1619.847046
2424.866312	0.083507	0.153857	1695.170410
2425.866445	0.859039	0.169354	376.259216
2425.867395	0.585557	0.169354	932.538025
2425.868338	0.088250	0.169354	1015.757324
2425.869262	0.083408	0.169354	1092.826538
2425.870162	0.083481	0.169354	1167.959839
2425.871101	0.083390	0.169354	1246.262939
2425.872031	0.083438	0.169354	1323.859863
2425.872943	0.083551	0.169354	1400.058350
2425.873834	0.083456	0.169354	1474.417480
2425.874773	0.083492	0.169354	1552.816895
2425.875707	0.083503	0.169354	1630.809082
2425.876598	0.083536	0.169354	1705.239990
2426.897619	0.885494	0.151766	399.357971
2426.898560	0.543794	0.151766	911.068054
2426.899447	0.089546	0.151766	990.495239
2426.900403	0.083489	0.151766	1070.310547
2426.901337	0.083562	0.151766	1148.357422
2426.902233	0.083547	0.151766	1223.215820
2426.903168	0.083514	0.151766	1301.301758
2426.904109	0.083492	0.151766	1379.868164
2426.905029	0.083555	0.151766	1456.738525
2426.905917	0.083478	0.151766	1530.866821
2426.906866	0.083463	0.151766	1610.073364
2426.907797	0.083434	0.151766	1687.750244
2427.910357	0.861947	0.165007	385.290314
2427.911254	0.603040	0.165007	926.216797
2427.912190	0.091351	0.165007	1011.721619
2427.913109	0.083459	0.165007	1088.420898
2427.914010	0.083489	0.165007	1163.644287
2427.914898	0.083463	0.165007	1237.759521
2427.915824	0.083463	0.165007	1315.046387
2427.916744	0.083456	0.165007	1391.825684
2427.917658	0.083481	0.165007	1468.127686
2427.918544	0.083481	0.165007	1542.092285
2427.919485	0.083456	0.165007	1620.624146
2427.920381	0.083456	0.165007	1695.400513
2428.939226	0.875577	0.152435	390.507507
2428.940137	0.584487	0.152435	922.975464
2428.941026	0.090787	0.152435	1003.685425
2428.941975	0.083503	0.152435	1082.930176
2428.942887	0.083558	0.152435	1159.135376
2428.943778	0.083540	0.152435	1233.569580
2428.944711	0.083551	0.152435	1311.522705
2428.945615	0.083573	0.152435	1387.072754
2428.946523	0.083478	0.152435	1462.870605
2428.947416	0.083456	0.152435	1537.396606
2428.948363	0.083606	0.152435	1616.571411
2428.949261	0.083496	0.152435	1691.550903
2429.953485	0.864756	0.166658	382.222076
2429.954460	0.533218	0.166658	902.109375
2429.955389	0.087872	0.166658	983.742737
2429.956282	0.083416	0.166658	1058.232788
2429.957205	0.083489	0.166658	1135.292969
2429.958143	0.083481	0.166658	1213.598511
2429.959062	0.083485	0.166658	1290.321289
2429.959958	0.083514	0.166658	1365.150146
2429.960897	0.083529	0.166658	1443.583984
2429.961829	0.083558	0.166658	1521.460327
2429.962734	0.083547	0.166658	1597.070679
2429.963631	0.083474	0.166658	1671.947021
2430.981070	0.867352	0.153466	384.237061
2430.981968	0.602267	0.153466	925.072693
2430.982914	0.089370	0.153466	1009.616821
2430.983859	0.083434	0.153466	1088.461792
2430.984796	0.083551	0.153466	1166.749146
2430.985687	0.083547	0.153466	1241.189819
2430.986605	0.083507	0.153466	1317.849365
2430.987546	0.083536	0.153466	1396.457153
2430.988464	0.083566	0.153466	1473.170410
2430.989360	0.083448	0.153466	1547.940308
2430.990306	0.083558	0.153466	1626.986572
2430.991240	0.083555	0.153466	1705.026611
2431.997390	0.866338	0.165933	384.654022
2431.998283	0.609093	0.165933	928.574097
2431.999259	0.089019	0.165933	1015.456177
2432.000163	0.083503	0.165933	1090.943237
2432.001049	0.083522	0.165933	1164.943481
2432.001974	0.083566	0.165933	1242.241699
2432.002880	0.083540	0.165933	1317.928955
2432.003801	0.083573	0.165933	1394.899658
2432.004693	0.083551	0.165933	1469.427124
2432.005642	0.083566	0.165933	1548.730957
2432.006550	0.083555	0.165933	1624.598633
2432.007468	0.083522	0.165933	1701.271606
2433.023688	0.857490	0.153067	374.723236
2433.024650	0.576207	0.153067	929.034668
2433.025551	0.088828	0.153067	1009.068787
2433.026447	0.083438	0.153067	1083.828735
2433.027340	0.083529	0.153067	1158.420166
2433.028288	0.083632	0.153067	1237.702881
2433.029201	0.083518	0.153067	1313.954834
2433.030095	0.083544	0.153067	1388.642944
2433.030982	0.083569	0.153067	1462.768921
2433.031918	0.083562	0.153067	1540.982910
2433.032817	0.083485	0.153067	1616.036011
2433.033705	0.083569	0.153067	1690.245605
2434.039753	0.854842	0.163355	371.001648
2434.040694	0.595038	0.163355	930.932251
2434.041613	0.088953	0.163355	1012.679749
2434.042510	0.083416	0.163355	1087.503418
2434.043405	0.083492	0.163355	1162.229126
2434.044357	0.083562	0.163355	1241.780151
2434.045263	0.083580	0.163355	1317.503906
2434.046160	0.083463	0.163355	1392.370361
2434.047046	0.083511	0.163355	1466.360840
2434.047977	0.083544	0.163355	1544.140015
2434.048886	0.083441	0.163355	1619.988037
2434.049781	0.083525	0.163355	1694.743286
2435.066366	0.922321	0.152709	451.014740
2435.067303	0.496780	0.152709	916.497437
2435.068224	0.087477	0.152709	997.063599
2435.069117	0.083445	0.152709	1071.579834
2435.070073	0.083470	0.152709	1151.377563
2435.071010	0.083525	0.152709	1229.640869
2435.071932	0.083540	0.152709	1306.664795
2435.072829	0.083507	0.152709	1381.570679
2435.073770	0.083507	0.152709	1460.150879
2435.074708	0.083518	0.152709	1538.490845
2435.075600	0.083536	0.152709	1613.005249
2435.076517	0.083438	0.152709	1689.517456
2436.082909	0.866451	0.163730	389.903137
2436.083815	0.587175	0.163730	921.883911
2436.084705	0.090780	0.163730	1002.678162
2436.085658	0.083372	0.163730	1082.131348
2436.086585	0.083445	0.163730	1159.484741
2436.087476	0.083511	0.163730	1233.892822
2436.088385	0.083459	0.163730	1309.757446
2436.089328	0.083507	0.163730	1388.504639
2436.090243	0.083496	0.163730	1464.903564
2436.091134	0.083481	0.163730	1539.285522
2436.092079	0.083551	0.163730	1618.241211
2436.092977	0.083456	0.163730	1693.184570
2437.108721	0.893478	0.152032	413.680206
2437.109629	0.568125	0.152032	929.537720
2437.110515	0.090315	0.152032	1009.556763
2437.111474	0.083445	0.152032	1089.580322
2437.112374	0.083474	0.152032	1164.707031
2437.113263	0.083514	0.152032	1238.951294
2437.114191	0.083558	0.152032	1316.493408
2437.115099	0.083503	0.152032	1392.314453
2437.116010	0.083525	0.152032	1468.406128
2437.116899	0.083511	0.152032	1542.647217
2437.117891	0.083566	0.152032	1625.544312
2437.118799	0.083445	0.152032	1701.312256
2438.125289	0.896645	0.167670	422.320038
2438.126199	0.553059	0.167670	925.603821
2438.127137	0.089165	0.167670	1009.240601
2438.128041	0.083566	0.167670	1084.783936
2438.128936	0.083562	0.167670	1159.571899
2438.129821	0.083536	0.167670	1233.501587
2438.130753	0.083591	0.167670	1311.408691
2438.131660	0.083580	0.167670	1387.216064
2438.132571	0.083573	0.167670	1463.351074
2438.133466	0.083536	0.167670	1538.116089
2438.134404	0.083635	0.167670	1616.565918
2438.135315	0.083511	0.167670	1692.644165
2439.152586	0.867993	0.151009	381.049011
2439.153563	0.523246	0.151009	892.260132
2439.154491	0.087825	0.151009	973.761475
2439.155381	0.083478	0.151009	1048.056641
2439.156302	0.083478	0.151009	1124.939697
2439.157240	0.083485	0.151009	1203.248779
2439.158163	0.083525	0.151009	1280.342773
2439.159061	0.083474	0.151009	1355.302490
2439.159996	0.083558	0.151009	1433.429565
2439.160933	0.083533	0.151009	1511.699707
2439.161836	0.083599	0.151009	1587.189209
2439.162756	0.083562	0.151009	1664.066284
2440.167879	0.858966	0.162791	374.509186
2440.168806	0.594309	0.162791	925.433716
2440.169752	0.089575	0.162791	1010.171875
2440.170668	0.083492	0.162791	1086.651001
2440.171557	0.083551	0.162791	1160.927856
2440.172476	0.083467	0.162791	1237.633789
2440.173399	0.083416	0.162791	1314.626343
2440.174318	0.083573	0.162791	1391.429932
2440.175208	0.083621	0.162791	1465.852295
2440.176153	0.083595	0.162791	1544.849487
2440.177090	0.083613	0.162791	1623.195190
2440.177991	0.083577	0.162791	1698.497803
2441.195265	0.901501	0.151021	443.538727
2441.196211	0.492140	0.151021	909.103088
2441.197133	0.087360	0.151021	989.648682
2441.198017	0.083357	0.151021	1063.336182
2441.198952	0.083481	0.151021	1141.391357
2441.199887	0.083470	0.151021	1219.436279
2441.200785	0.083489	0.151021	1294.409180
2441.201709	0.083500	0.151021	1371.562988
2441.202651	0.083496	0.151021	1450.216309
2441.203567	0.083452	0.151021	1526.658447
2441.204460	0.083503	0.151021	1601.227051
2441.205393	0.083500	0.151021	1679.132324
2442.210506	0.862079	0.168024	377.590546
2442.211472	0.540289	0.168024	899.510010
2442.212382	0.088469	0.168024	980.017029
2442.213298	0.083408	0.168024	1056.418945
2442.214191	0.083496	0.168024	1130.980957
2442.215155	0.083419	0.168024	1211.397095
2442.216065	0.083423	0.168024	1287.311890
2442.216958	0.083416	0.168024	1361.802002
2442.217875	0.083463	0.168024	1438.337646
2442.218805	0.083470	0.168024	1515.965210
2442.219725	0.083368	0.168024	1592.663696
2442.220614	0.083441	0.168024	1666.842896
2443.238371	0.872325	0.152136	393.418762
2443.239273	0.590504	0.152136	926.053467
2443.240158	0.091121	0.152136	1006.695190
2443.241117	0.083441	0.152136	1086.715210
2443.242014	0.083503	0.152136	1161.617798
2443.242925	0.083584	0.152136	1237.762817
2443.243828	0.083518	0.152136	1313.179687
2443.244789	0.083551	0.152136	1393.472168
2443.245686	0.083470	0.152136	1468.345215
2443.246577	0.083657	0.152136	1542.883789
2443.247502	0.083503	0.152136	1620.124512
2443.248426	0.083500	0.152136	1697.278320
2444.252623	0.864280	0.164072	380.283081
2444.253605	0.518251	0.164072	889.205322
2444.254515	0.088257	0.164072	969.519043
2444.255405	0.083489	0.164072	1043.824097
2444.256326	0.083551	0.164072	1120.774536
2444.257242	0.083650	0.164072	1197.397827
2444.258150	0.083536	0.164072	1273.248901
2444.259047	0.083507	0.164072	1348.154785
2444.259968	0.083485	0.164072	1425.044556
2444.260875	0.083525	0.164072	1500.802124
2444.261772	0.083533	0.164072	1575.730957
2444.262657	0.083518	0.164072	1649.644409
2445.282549	0.878188	0.149828	418.895874
2445.283488	0.521027	0.149828	908.139893
2445.284380	0.088608	0.149828	987.178589
2445.285303	0.083357	0.149828	1064.117065
2445.286243	0.083522	0.149828	1142.627441
2445.287162	0.083419	0.149828	1219.289673
2445.288050	0.083430	0.149828	1293.375610
2445.288993	0.083438	0.149828	1372.057129
2445.289924	0.083463	0.149828	1449.761353
2445.290846	0.083555	0.149828	1526.798828
2445.291737	0.083467	0.149828	1601.167725
2445.292685	0.083474	0.149828	1680.301147
2446.294221	0.862438	0.167118	378.610199
2446.295196	0.532661	0.167118	897.954834
2446.296122	0.087660	0.167118	979.127930
2446.297021	0.083540	0.167118	1054.230469
2446.297935	0.083467	0.167118	1130.519165
2446.298866	0.083467	0.167118	1208.226807
2446.299780	0.083522	0.167118	1284.565674
2446.300668	0.083584	0.167118	1358.788208
2446.301612	0.083507	0.167118	1437.618896
2446.302552	0.083536	0.167118	1516.143066
2446.303447	0.083536	0.167118	1590.908081
2446.304357	0.083533	0.167118	1666.922852
2447.327246	0.932761	0.146718	473.842682
2447.328158	0.511428	0.146718	940.265259
2447.329082	0.087821	0.146718	1021.411926
2447.329968	0.083456	0.146718	1095.353760
2447.330918	0.083485	0.146718	1174.664673
2447.331820	0.083529	0.146718	1250.007935
2447.332711	0.083489	0.146718	1324.396484
2447.333642	0.083569	0.146718	1402.199585
2447.334551	0.083540	0.146718	1478.137451
2447.335472	0.083580	0.146718	1555.114990
2447.336365	0.083489	0.146718	1629.670410
2447.337327	0.083580	0.146718	1710.074707
2448.335081	0.873922	0.168790	407.247711
2448.335994	0.556348	0.168790	915.193115
2448.336929	0.089641	0.168790	999.007568
2448.337838	0.083434	0.168790	1074.848877
2448.338761	0.083485	0.168790	1151.905640
2448.339649	0.083500	0.168790	1226.053467
2448.340596	0.083540	0.168790	1305.165894
2448.341501	0.083511	0.168790	1380.743164
2448.342418	0.083441	0.168790	1457.258667
2448.343305	0.083503	0.168790	1531.326172
2448.344263	0.083533	0.168790	1611.350464
2448.345163	0.083459	0.168790	1686.463989
2449.371591	0.859343	0.146396	376.392334
2449.372482	0.614154	0.146396	923.603577
2449.373463	0.088436	0.146396	1010.359558
2449.374370	0.083430	0.146396	1086.030762
2449.375261	0.083467	0.146396	1160.399658
2449.376162	0.083573	0.146396	1235.698975
2449.377087	0.083602	0.146396	1313.031128
2449.377980	0.083485	0.146396	1387.583374
2449.378867	0.083470	0.146396	1461.621704
2449.379785	0.083544	0.146396	1538.314819
2449.380704	0.083500	0.146396	1615.051147
2449.381605	0.083478	0.146396	1690.264648
2450.375927	0.895042	0.168580	430.514984
2450.376862	0.513146	0.168580	910.306274
2450.377766	0.088374	0.168580	990.196411
2450.378654	0.083438	0.168580	1064.288940
2450.379599	0.083602	0.168580	1143.293091
2450.380506	0.083496	0.168580	1219.024048
2450.381400	0.083551	0.168580	1293.718628
2450.382324	0.083595	0.168580	1370.960327
2450.383244	0.083643	0.168580	1447.911499
2450.384152	0.083478	0.168580	1523.709351
2450.385047	0.083551	0.168580	1598.487549
2450.385970	0.083617	0.168580	1675.666016
2451.416808	0.883510	0.146046	413.482452
2451.417715	0.561859	0.146046	923.088684
2451.418658	0.089667	0.146046	1007.644409
2451.419565	0.083427	0.146046	1083.312256
2451.420474	0.083514	0.146046	1159.226807
2451.421370	0.083529	0.146046	1234.068848
2451.422297	0.083525	0.146046	1311.496826
2451.423203	0.083540	0.146046	1387.184082
2451.424114	0.083489	0.146046	1463.242310
2451.425006	0.083503	0.146046	1537.727295
2451.425935	0.083551	0.146046	1615.346191
2451.426838	0.083536	0.146046	1690.779541
2452.416226	0.873241	0.169374	393.831665
2452.417119	0.595100	0.169374	925.256042
2452.418050	0.089476	0.169374	1008.558472
2452.419003	0.083536	0.169374	1088.168701
2452.419921	0.083602	0.169374	1164.915649
2452.420808	0.083474	0.169374	1238.957153
2452.421753	0.083540	0.169374	1317.902466
2452.422691	0.083540	0.169374	1396.263062
2452.423589	0.083536	0.169374	1471.278687
2452.424512	0.083544	0.169374	1548.389526
2452.425447	0.083514	0.169374	1626.475464
2452.426366	0.083610	0.169374	1703.312744
2453.461756	0.900190	0.146066	430.291016
2453.462665	0.544596	0.146066	925.328735
2453.463556	0.089513	0.146066	1005.084778
2453.464526	0.083390	0.146066	1085.973022
2453.465459	0.083577	0.146066	1163.950073
2453.466361	0.083606	0.146066	1239.362671
2453.467277	0.083518	0.146066	1315.865234
2453.468214	0.083518	0.146066	1394.121704
2453.469128	0.083547	0.146066	1470.484009
2453.470021	0.083599	0.146066	1545.137573
2453.470966	0.083591	0.146066	1624.131348
2453.471900	0.083577	0.146066	1702.191895
2454.457070	0.889083	0.168213	411.645538
2454.457979	0.562507	0.168213	922.964722
2454.458893	0.089169	0.168213	1004.464905
2454.459790	0.083489	0.168213	1079.354370
2454.460741	0.083492	0.168213	1158.755615
2454.461662	0.083558	0.168213	1235.712891
2454.462564	0.083489	0.168213	1311.019775
2454.463515	0.083529	0.168213	1390.455933
2454.464418	0.083456	0.168213	1465.816528
2454.465336	0.083474	0.168213	1542.445801
2454.466228	0.083518	0.168213	1616.943970
2454.467168	0.083544	0.168213	1695.475098
2455.506147	0.884839	0.142360	406.141052
2455.507072	0.564250	0.142360	928.072754
2455.507989	0.089055	0.142360	1009.736328
2455.508901	0.083492	0.142360	1085.881470
2455.509834	0.083558	0.142360	1163.841431
2455.510730	0.083445	0.142360	1238.608032
2455.511616	0.083434	0.142360	1312.530396
2455.512552	0.083529	0.142360	1390.713623
2455.513467	0.083503	0.142360	1467.119263
2455.514371	0.083518	0.142360	1542.619629
2455.515260	0.083503	0.142360	1616.854126
2455.516208	0.083544	0.142360	1696.053589
2456.497864	0.854308	0.167384	368.206665
2456.498819	0.552290	0.167384	895.643616
2456.499724	0.089301	0.167384	976.460571
2456.500629	0.083507	0.167384	1052.034424
2456.501518	0.083551	0.167384	1126.311279
2456.502459	0.083639	0.167384	1205.015503
2456.503358	0.083569	0.167384	1280.144287
2456.504248	0.083522	0.167384	1354.478638
2456.505186	0.083540	0.167384	1432.839233
2456.506085	0.083588	0.167384	1507.984497
2456.506979	0.083500	0.167384	1582.633301
2456.507865	0.083481	0.167384	1656.597900
2457.549017	0.884722	0.146316	396.355286
2457.549956	0.548588	0.146316	911.479126
2457.550855	0.089689	0.146316	992.109253
2457.551797	0.083430	0.146316	1070.700439
2457.552735	0.083503	0.146316	1149.026611
2457.553626	0.083485	0.146316	1223.411865
2457.554543	0.083525	0.146316	1300.004639
2457.555473	0.083496	0.146316	1377.656006
2457.556386	0.083555	0.146316	1453.941406
2457.557278	0.083500	0.146316	1528.423218
2457.558230	0.083529	0.146316	1607.942871
2457.559160	0.083492	0.146316	1685.590820
2458.540507	0.889834	0.165970	403.094788
2458.541460	0.531002	0.165970	909.139893
2458.542347	0.089062	0.165970	988.138306
2458.543293	0.083485	0.165970	1067.115234
2458.544203	0.083522	0.165970	1143.119995
2458.545120	0.083514	0.165970	1219.702759
2458.546011	0.083386	0.165970	1293.999878
2458.546963	0.083514	0.165970	1373.505615
2458.547885	0.083514	0.165970	1450.505859
2458.548775	0.083507	0.165970	1524.827148
2458.549704	0.083514	0.165970	1602.411987
2458.550621	0.083481	0.165970	1678.964478
2459.592719	0.930985	0.142759	468.285492
2459.593637	0.508440	0.142759	935.033325
2459.594562	0.087799	0.142759	1016.247437
2459.595452	0.083489	0.142759	1090.552490
2459.596398	0.083588	0.142759	1169.626465
2459.597292	0.083522	0.142759	1244.294922
2459.598184	0.083580	0.142759	1318.848633
2459.599122	0.083588	0.142759	1397.253906
2459.600019	0.083511	0.142759	1472.163086
2459.600939	0.083448	0.142759	1548.935669
2459.601841	0.083573	0.142759	1624.318481
2459.602826	0.083595	0.142759	1706.659546
2460.582354	0.871011	0.166554	385.857758
2460.583264	0.589980	0.166554	922.739990
2460.584153	0.090853	0.166554	1003.508545
2460.585121	0.083514	0.166554	1084.350464
2460.586023	0.083536	0.166554	1159.700317
2460.586928	0.083558	0.166554	1235.320679
2460.587815	0.083467	0.166554	1309.355713
2460.588762	0.083599	0.166554	1388.523560
2460.589673	0.083558	0.166554	1464.645264
2460.590559	0.083562	0.166554	1538.681152
2460.591486	0.083547	0.166554	1616.129517
2460.592395	0.083621	0.166554	1692.140625
2461.635795	0.865800	0.142984	384.415009
2461.636691	0.602545	0.142984	924.295410
2461.637659	0.089015	0.142984	1010.461792
2461.638572	0.083423	0.142984	1086.626831
2461.639462	0.083569	0.142984	1161.003540
2461.640395	0.083470	0.142984	1238.881470
2461.641331	0.083540	0.142984	1317.074951
2461.642250	0.083536	0.142984	1393.844849
2461.643134	0.083492	0.142984	1467.652100
2461.644076	0.083481	0.142984	1546.291626
2461.645010	0.083467	0.142984	1624.249634
2461.645906	0.083500	0.142984	1699.065430
2462.625480	0.865096	0.165925	377.182037
2462.626464	0.530035	0.165925	898.736816
2462.627379	0.088000	0.165925	979.257263
2462.628276	0.083456	0.165925	1054.117187
2462.629193	0.083467	0.165925	1130.656250
2462.630110	0.083522	0.165925	1207.245728
2462.631036	0.083514	0.165925	1284.580078
2462.631923	0.083511	0.165925	1358.654053
2462.632885	0.083416	0.165925	1438.899780
2462.633802	0.083544	0.165925	1515.509399
2462.634726	0.083536	0.165925	1592.697021
2462.635611	0.083430	0.165925	1666.532715
2463.678721	0.890665	0.144559	440.879333
2463.679651	0.509268	0.144559	914.498169
2463.680575	0.087506	0.144559	995.353821
2463.681481	0.083474	0.144559	1070.981323
2463.682437	0.083551	0.144559	1150.856079
2463.683350	0.083511	0.144559	1227.101440
2463.684271	0.083551	0.144559	1304.051880
2463.685175	0.083536	0.144559	1379.568726
2463.686113	0.083478	0.144559	1457.870850
2463.687004	0.083606	0.144559	1532.363770
2463.687894	0.083558	0.144559	1606.730713
2463.688832	0.083577	0.144559	1685.125610
2464.668145	0.900630	0.169205	419.693512
2464.669075	0.541414	0.169205	923.208130
2464.669969	0.089132	0.169205	1002.892212
2464.670879	0.083511	0.169205	1078.886963
2464.671803	0.083643	0.169205	1156.172729
2464.672710	0.083467	0.169205	1231.877075
2464.673602	0.083540	0.169205	1306.394775
2464.674535	0.083566	0.169205	1384.361572
2464.675443	0.083529	0.169205	1460.205933
2464.676339	0.083529	0.169205	1535.047974
2464.677228	0.083544	0.169205	1609.318359
2464.678175	0.083613	0.169205	1688.500122
2465.721577	0.894891	0.143121	421.493805
2465.722489	0.550752	0.143121	923.779602
2465.723409	0.089044	0.143121	1005.700256
2465.724348	0.083427	0.143121	1084.037720
2465.725270	0.083558	0.143121	1161.078491
2465.726158	0.083540	0.143121	1235.262085
2465.727088	0.083503	0.143121	1312.920288
2465.728021	0.083492	0.143121	1390.818726
2465.728937	0.083536	0.143121	1467.338013
2465.729833	0.083551	0.143121	1542.199707
2465.730774	0.083492	0.143121	1620.766113
2465.731712	0.083481	0.143121	1699.071655
2466.710996	0.867781	0.163182	386.162445
2466.711895	0.598876	0.163182	924.551758
2466.712841	0.089619	0.163182	1009.331482
2466.713774	0.083441	0.163182	1087.182129
2466.714673	0.083529	0.163182	1162.274780
2466.715576	0.083478	0.163182	1237.655273
2466.716508	0.083536	0.163182	1315.511230
2466.717442	0.083456	0.163182	1393.458984
2466.718331	0.083602	0.163182	1467.781372
2466.719254	0.083536	0.163182	1544.885498
2466.720184	0.083500	0.163182	1622.540283
2466.721105	0.083485	0.163182	1699.430054
2467.763411	0.857864	0.142924	376.602173
2467.764314	0.606218	0.142924	924.017273
2467.765240	0.091461	0.142924	1008.710327
2467.766165	0.083394	0.142924	1085.849365
2467.767080	0.083511	0.142924	1162.261719
2467.767971	0.083445	0.142924	1236.611084
2467.768923	0.083459	0.142924	1316.064453
2467.769829	0.083496	0.142924	1391.711914
2467.770754	0.083503	0.142924	1468.952637
2467.771642	0.083470	0.142924	1543.074463
2467.772579	0.083459	0.142924	1621.276001
2467.773494	0.083386	0.142924	1697.574463
2468.754961	0.901351	0.165374	456.083740
2468.755874	0.512501	0.165374	923.997375
2468.756790	0.087792	0.165374	1004.414612
2468.757690	0.083419	0.165374	1079.491943
2468.758629	0.083500	0.165374	1157.898193
2468.759536	0.083540	0.165374	1233.669067
2468.760427	0.083584	0.165374	1308.142456
2468.761339	0.083558	0.165374	1384.347656
2468.762267	0.083566	0.165374	1461.896606
2468.763161	0.083467	0.165374	1536.515869
2468.764053	0.083536	0.165374	1611.030273
2468.764993	0.083525	0.165374	1689.544189
2469.805269	0.870736	0.141985	389.219025
2469.806169	0.595023	0.141985	924.739868
2469.807108	0.090890	0.141985	1010.085449
2469.808018	0.083529	0.141985	1086.096924
2469.808930	0.083511	0.141985	1162.258667
2469.809821	0.083577	0.141985	1236.725464
2469.810765	0.083679	0.141985	1315.718628
2469.811670	0.083595	0.141985	1391.372070
2469.812561	0.083536	0.141985	1465.802979
2469.813449	0.083544	0.141985	1539.989746
2469.814394	0.083606	0.141985	1618.997314
2469.815307	0.083555	0.141985	1695.282715
2470.798300	0.878005	0.166630	392.468384
2470.799206	0.589493	0.166630	926.549377
2470.800091	0.091183	0.166630	1007.246216
2470.801044	0.083412	0.166630	1086.737671
2470.801957	0.083489	0.166630	1162.962891
2470.802846	0.083547	0.166630	1237.236450
2470.803781	0.083555	0.166630	1315.360107
2470.804686	0.083602	0.166630	1391.020142
2470.805585	0.083492	0.166630	1466.079834
2470.806476	0.083544	0.166630	1540.517212
2470.807436	0.083529	0.166630	1620.705078
2470.808339	0.083602	0.166630	1696.197998
2471.846889	0.879415	0.144882	401.013367
2471.847791	0.581624	0.144882	925.637817
2471.848677	0.090769	0.144882	1006.059204
2471.849640	0.083317	0.144882	1086.293091
2471.850565	0.083452	0.144882	1163.486328
2471.851456	0.083485	0.144882	1237.871582
2471.852375	0.083427	0.144882	1314.540527
2471.853312	0.083445	0.144882	1392.728271
2471.854255	0.083427	0.144882	1471.399414
2471.855150	0.083448	0.144882	1546.085815
2471.856073	0.083379	0.144882	1623.044556
2471.857006	0.083386	0.144882	1700.843872
2472.842452	0.860112	0.166626	381.889862
2472.843357	0.600747	0.166626	925.566040
2472.844245	0.091289	0.166626	1006.630737
2472.845210	0.083379	0.166626	1087.091431
2472.846115	0.083412	0.166626	1162.579224
2472.847033	0.083514	0.166626	1239.245483
2472.847917	0.083467	0.166626	1313.030151
2472.848866	0.083452	0.166626	1392.226196
2472.849789	0.083489	0.166626	1469.286377
2472.850680	0.083481	0.166626	1543.668335
2472.851620	0.083547	0.166626	1622.202881
2472.852532	0.083441	0.166626	1698.301270
2473.888222	0.879745	0.143137	397.644684
2473.889135	0.574427	0.143137	922.096924
2473.890024	0.090399	0.143137	1002.461792
2473.890983	0.083580	0.143137	1082.615356
2473.891884	0.083536	0.143137	1157.881592
2473.892806	0.083562	0.143137	1234.925781
2473.893694	0.083595	0.143137	1309.158081
2473.894634	0.083536	0.143137	1387.682251
2473.895537	0.083544	0.143137	1463.122192
2473.896428	0.083511	0.143137	1537.530273
2473.897352	0.083551	0.143137	1614.731445
2473.898264	0.083533	0.143137	1690.913330
2474.887377	0.869564	0.166381	386.956055
2474.888293	0.588706	0.166381	926.210754
2474.889191	0.090428	0.166381	1007.415527
2474.890115	0.083540	0.166381	1084.606567
2474.891021	0.083580	0.166381	1160.330322
2474.891920	0.083500	0.166381	1235.396606
2474.892809	0.083507	0.166381	1309.634399
2474.893738	0.083654	0.166381	1387.348511
2474.894637	0.083569	0.166381	1462.477295
2474.895546	0.083489	0.166381	1538.368530
2474.896434	0.083525	0.166381	1612.539062
2474.897382	0.083558	0.166381	1691.752441
2475.929351	0.883312	0.141739	430.172821
2475.930279	0.512509	0.141739	905.780762
2475.931179	0.088242	0.141739	985.198730
2475.932098	0.083518	0.141739	1061.951782
2475.933036	0.083533	0.141739	1140.305420
2475.933951	0.083474	0.141739	1216.684204
2475.934845	0.083430	0.141739	1291.270752
2475.935794	0.083496	0.141739	1370.508545
2475.936717	0.083525	0.141739	1447.602539
2475.937624	0.083518	0.141739	1523.353394
2475.938533	0.083547	0.141739	1599.297974
2475.939459	0.083503	0.141739	1676.622192
2476.932326	0.881565	0.165966	410.809265
2476.933238	0.559724	0.165966	921.277710
2476.934125	0.089974	0.165966	1001.084961
2476.935086	0.083401	0.165966	1081.233154
2476.936010	0.083346	0.165966	1158.244873
2476.936901	0.083463	0.165966	1232.610474
2476.937831	0.083496	0.165966	1310.261841
2476.938744	0.083434	0.165966	1386.436890
2476.939666	0.083474	0.165966	1463.400024
2476.940551	0.083536	0.165966	1537.329712
2476.941492	0.083456	0.165966	1615.861572
2476.942405	0.083452	0.165966	1692.053345
2477.970123	0.861039	0.143737	375.412933
2477.971084	0.539674	0.143737	894.039673
2477.971992	0.088715	0.143737	974.592529
2477.972881	0.083478	0.143737	1048.804321
2477.973807	0.083441	0.143737	1126.070801
2477.974731	0.083525	0.143737	1203.248291
2477.975636	0.083522	0.143737	1278.835449
2477.976528	0.083544	0.143737	1353.356445
2477.977472	0.083533	0.143737	1432.211304
2477.978385	0.083448	0.143737	1508.399780
2477.979305	0.083558	0.143737	1585.273437
2477.980192	0.083540	0.143737	1659.373413
2478.976991	0.879137	0.163706	394.732513
2478.977913	0.568114	0.163706	918.533691
2478.978804	0.090103	0.163706	998.815063
2478.979751	0.083540	0.163706	1077.927490
2478.980651	0.083514	0.163706	1153.090454
2478.981547	0.083496	0.163706	1227.902954
2478.982436	0.083566	0.163706	1302.192871
2478.983366	0.083657	0.163706	1379.994141
2478.984271	0.083569	0.163706	1455.624390
2478.985175	0.083544	0.163706	1531.147949
2478.986078	0.083507	0.163706	1606.554810
2478.987009	0.083676	0.163706	1684.456787
2480.011230	0.882902	0.144334	403.486023
2480.012131	0.586359	0.144334	931.795105
2480.013064	0.089498	0.144334	1015.296997
2480.013976	0.083456	0.144334	1091.408691
2480.014883	0.083492	0.144334	1167.136353
2480.015772	0.083470	0.144334	1241.341553
2480.016721	0.083624	0.144334	1320.700928
2480.017628	0.083474	0.144334	1396.411987
2480.018528	0.083478	0.144334	1471.541992
2480.019456	0.083547	0.144334	1549.073975
2480.020362	0.083540	0.144334	1624.761230
2480.021271	0.083441	0.144334	1700.609253
2481.021443	0.891522	0.163097	440.411987
2481.022371	0.505038	0.163097	909.087097
2481.023295	0.087480	0.163097	989.919067
2481.024193	0.083456	0.163097	1064.862427
2481.025123	0.083489	0.163097	1142.506958
2481.026058	0.083470	0.163097	1220.551880
2481.026958	0.083551	0.163097	1295.747803
2481.027874	0.083485	0.163097	1372.220215
2481.028806	0.083536	0.163097	1450.076172
2481.029739	0.083525	0.163097	1528.005371
2481.030631	0.083555	0.163097	1602.536133
2481.031555	0.083503	0.163097	1679.693237
2482.052553	0.854084	0.145703	370.672668
2482.053449	0.619135	0.145703	925.417236
2482.054422	0.088623	0.145703	1011.647461
2482.055338	0.083423	0.145703	1088.062744
2482.056261	0.083536	0.145703	1165.166870
2482.057145	0.083492	0.145703	1238.974121
2482.058100	0.083470	0.145703	1318.688354
2482.059020	0.083525	0.145703	1395.531738
2482.059907	0.083507	0.145703	1469.602539
2482.060845	0.083489	0.145703	1547.915039
2482.061765	0.083492	0.145703	1624.728027
2482.062683	0.083536	0.145703	1701.414429
2483.065304	0.865715	0.159766	390.437622
2483.066198	0.600703	0.159766	927.466187
2483.067136	0.090978	0.159766	1012.803345
2483.068046	0.083448	0.159766	1088.741455
2483.068971	0.083496	0.159766	1165.975342
2483.069860	0.083558	0.159766	1240.258667
2483.070813	0.083529	0.159766	1319.861816
2483.071715	0.083551	0.159766	1395.224854
2483.072632	0.083540	0.159766	1471.831055
2483.073521	0.083514	0.159766	1546.075317
2483.074476	0.083492	0.159766	1625.810547
2483.075400	0.083500	0.159766	1702.964355
2484.094418	0.861973	0.145256	381.853882
2484.095317	0.606108	0.145256	926.745361
2484.096205	0.091608	0.145256	1008.092957
2484.097169	0.083478	0.145256	1088.565552
2484.098075	0.083463	0.145256	1164.183105
2484.098968	0.083525	0.145256	1238.771240
2484.099906	0.083580	0.145256	1317.169556
2484.100823	0.083467	0.145256	1393.708618
2484.101725	0.083511	0.145256	1469.035278
2484.102617	0.083518	0.145256	1543.533447
2484.103559	0.083492	0.145256	1622.183350
2484.104477	0.083503	0.145256	1698.839478
2485.108169	0.861064	0.160149	377.146240
2485.109062	0.605087	0.160149	917.488647
2485.110019	0.089103	0.160149	1002.760010
2485.110930	0.083452	0.160149	1078.784912
2485.111826	0.083514	0.160149	1153.613770
2485.112755	0.083595	0.160149	1231.273437
2485.113657	0.083558	0.160149	1306.643066
2485.114573	0.083503	0.160149	1383.132202
2485.115469	0.083536	0.160149	1457.980835
2485.116418	0.083643	0.160149	1537.357666
2485.117328	0.083569	0.160149	1613.405762
2485.118221	0.083573	0.160149	1688.036499
2486.137056	0.882074	0.146191	400.461578
2486.137956	0.587413	0.146191	929.133545
2486.138903	0.090553	0.146191	1014.887207
2486.139804	0.083529	0.146191	1090.146851
2486.140701	0.083547	0.146191	1165.088867
2486.141593	0.083555	0.146191	1239.619629
2486.142531	0.083588	0.146191	1318.024902
2486.143437	0.083606	0.146191	1393.771851
2486.144342	0.083522	0.146191	1469.359009
2486.145228	0.083588	0.146191	1543.417725
2486.146176	0.083500	0.146191	1622.575439
2486.147084	0.083525	0.146191	1698.416504
2487.152113	0.911514	0.161337	434.792023
2487.153052	0.512036	0.161337	915.593994
2487.153949	0.088348	0.161337	994.842529
2487.154866	0.083503	0.161337	1071.415161
2487.155803	0.083489	0.161337	1149.644165
2487.156715	0.083540	0.161337	1225.832642
2487.157602	0.083485	0.161337	1299.883911
2487.158542	0.083551	0.161337	1378.421875
2487.159475	0.083580	0.161337	1456.402344
2487.160366	0.083511	0.161337	1530.810425
2487.161285	0.083562	0.161337	1607.603882
2487.162213	0.083434	0.161337	1685.030518
2488.179401	0.859574	0.146046	375.633820
2488.180342	0.575544	0.146046	917.221191
2488.181277	0.088748	0.146046	1000.200134
2488.182193	0.083394	0.146046	1076.588623
2488.183082	0.083558	0.146046	1150.871948
2488.184036	0.083522	0.146046	1230.551636
2488.184964	0.083492	0.146046	1308.032593
2488.185879	0.083547	0.146046	1384.478394
2488.186784	0.083489	0.146046	1460.035767
2488.187708	0.083485	0.146046	1537.176025
2488.188643	0.083514	0.146046	1615.261963
2488.189540	0.083544	0.146046	1690.200684
2489.194476	0.891859	0.157655	417.390106
2489.195397	0.552334	0.157655	926.089661
2489.196287	0.089740	0.157655	1005.958252
2489.197249	0.083489	0.157655	1086.274414
2489.198168	0.083613	0.157655	1163.114990
2489.199058	0.083606	0.157655	1237.524292
2489.200005	0.083613	0.157655	1316.706055
2489.200916	0.083584	0.157655	1392.851074
2489.201831	0.083544	0.157655	1469.293579
2489.202727	0.083573	0.157655	1544.175049
2489.203668	0.083606	0.157655	1622.848267
2489.204591	0.083522	0.157655	1699.938843
2490.221773	0.864547	0.145869	380.400726
2490.222750	0.549353	0.145869	917.118652
2490.223656	0.088286	0.145869	997.105896
2490.224568	0.083511	0.145869	1073.267700
2490.225463	0.083522	0.145869	1148.019653
2490.226410	0.083489	0.145869	1227.083496
2490.227321	0.083522	0.145869	1303.171753
2490.228235	0.083492	0.145869	1379.483887
2490.229125	0.083632	0.145869	1453.916016
2490.230078	0.083558	0.145869	1533.547119
2490.230973	0.083569	0.145869	1608.341675
2490.231860	0.083566	0.145869	1682.464478
2491.237573	0.855007	0.158489	370.218170
2491.238520	0.567308	0.158489	907.459229
2491.239441	0.088802	0.158489	989.246338
2491.240340	0.083481	0.158489	1064.296143
2491.241226	0.083562	0.158489	1138.332031
2491.242170	0.083569	0.158489	1217.221436
2491.243074	0.083551	0.158489	1292.751587
2491.243960	0.083514	0.158489	1366.745361
2491.244877	0.083558	0.158489	1443.368408
2491.245809	0.083646	0.158489	1521.326660
2491.246715	0.083562	0.158489	1597.033813
2491.247615	0.083533	0.158489	1672.213257
2492.265210	0.914714	0.146042	444.551178
2492.266132	0.521125	0.146042	925.028870
2492.267034	0.088612	0.146042	1004.956970
2492.267924	0.083448	0.146042	1079.226074
2492.268868	0.083606	0.146042	1158.150146
2492.269774	0.083456	0.146042	1233.761108
2492.270666	0.083588	0.146042	1308.321289
2492.271607	0.083599	0.146042	1386.987549
2492.272505	0.083687	0.146042	1462.138062
2492.273406	0.083569	0.146042	1537.434082
2492.274296	0.083551	0.146042	1611.794434
2492.275227	0.083610	0.146042	1689.635010
2493.279945	0.868795	0.159238	380.532288
2493.280916	0.532101	0.159238	897.202209
2493.281833	0.087935	0.159238	977.838196
2493.282732	0.083463	0.159238	1052.871582
2493.283648	0.083445	0.159238	1129.307007
2493.284592	0.083522	0.159238	1208.151489
2493.285523	0.083492	0.159238	1285.882935
2493.286422	0.083551	0.159238	1360.995361
2493.287337	0.083540	0.159238	1437.434448
2493.288271	0.083562	0.159238	1515.481323
2493.289183	0.083522	0.159238	1591.653076
2493.290074	0.083463	0.159238	1666.018677
2494.308041	0.860676	0.147661	376.976227
2494.308936	0.603538	0.147661	917.142456
2494.309922	0.088180	0.147661	1004.087891
2494.310836	0.083430	0.147661	1080.343018
2494.311734	0.083511	0.147661	1155.335693
2494.312649	0.083445	0.147661	1231.687744
2494.313567	0.083467	0.147661	1308.310303
2494.314481	0.083412	0.147661	1384.548706
2494.315367	0.083529	0.147661	1458.555420
2494.316301	0.083463	0.147661	1536.510010
2494.317215	0.083492	0.147661	1612.822144
2494.318135	0.083514	0.147661	1689.655396
2495.322086	0.886783	0.159279	400.826111
2495.323020	0.551056	0.159279	915.512329
2495.323921	0.089330	0.159279	995.998535
2495.324810	0.083441	0.159279	1070.177734
2495.325751	0.083555	0.159279	1148.802734
2495.326651	0.083562	0.159279	1224.008545
2495.327542	0.083588	0.159279	1298.485107
2495.328471	0.083555	0.159279	1376.107422
2495.329386	0.083621	0.159279	1452.620239
2495.330287	0.083610	0.159279	1527.952515
2495.331177	0.083536	0.159279	1602.299927
2495.332120	0.083679	0.159279	1681.209473
2496.351232	0.886036	0.143677	423.525391
2496.352156	0.531731	0.143677	914.844788
2496.353057	0.088656	0.143677	994.723877
2496.353977	0.083434	0.143677	1071.483032
2496.354917	0.083533	0.143677	1150.003784
2496.355833	0.083463	0.143677	1226.456055
2496.356724	0.083470	0.143677	1300.828247
2496.357664	0.083511	0.143677	1379.328369
2496.358600	0.083401	0.143677	1457.391602
2496.359499	0.083511	0.143677	1532.467773
2496.360408	0.083485	0.143677	1608.355713
2496.361342	0.083481	0.143677	1686.327393
2497.363950	0.882535	0.160330	407.731354
2497.364865	0.562815	0.160330	922.707031
2497.365756	0.089934	0.160330	1002.838318
2497.366708	0.083320	0.160330	1082.159302
2497.367639	0.083412	0.160330	1159.815796
2497.368529	0.083478	0.160330	1234.111084
2497.369451	0.083408	0.160330	1311.013428
2497.370382	0.083514	0.160330	1388.765381
2497.371322	0.083408	0.160330	1467.169067
2497.372219	0.083478	0.160330	1542.048584
2497.373139	0.083397	0.160330	1618.774048
2497.374086	0.083434	0.160330	1697.785889
2498.395412	0.929216	0.142170	473.900299
2498.396329	0.507671	0.142170	939.434570
2498.397252	0.087671	0.142170	1020.354797
2498.398140	0.083408	0.142170	1094.421265
2498.399097	0.083569	0.142170	1174.397095
2498.399992	0.083434	0.142170	1249.070435
2498.400882	0.083492	0.142170	1323.378662
2498.401806	0.083591	0.142170	1400.617065
2498.402716	0.083514	0.142170	1476.615234
2498.403621	0.083551	0.142170	1552.228882
2498.404508	0.083496	0.142170	1626.289917
2498.405455	0.083525	0.142170	1705.388428
2499.405801	0.888801	0.160524	410.626190
2499.406701	0.579298	0.160524	931.994507
2499.407588	0.090659	0.160524	1012.409180
2499.408532	0.083522	0.160524	1091.253662
2499.409442	0.083383	0.160524	1167.131836
2499.410330	0.083492	0.160524	1241.273071
2499.411257	0.083544	0.160524	1318.718018
2499.412178	0.083492	0.160524	1395.614502
2499.413088	0.083544	0.160524	1471.639282
2499.413981	0.083518	0.160524	1546.220947
2499.414923	0.083525	0.160524	1624.901855
2499.415828	0.083470	0.160524	1700.442627
2500.439515	0.874764	0.142396	391.019684
2500.440411	0.591390	0.142396	920.905518
2500.441360	0.089095	0.142396	1005.457092
2500.442267	0.083423	0.142396	1081.121582
2500.443160	0.083481	0.142396	1155.670532
2500.444088	0.083525	0.142396	1233.182129
2500.444997	0.083518	0.142396	1309.100098
2500.445900	0.083448	0.142396	1384.454102
2500.446788	0.083485	0.142396	1458.588867
2500.447728	0.083566	0.142396	1537.140625
2500.448634	0.083503	0.142396	1612.794678
2500.449538	0.083525	0.142396	1688.301636
2501.446897	0.897773	0.161386	429.135712
2501.447853	0.501061	0.161386	908.149780
2501.448764	0.087649	0.161386	987.997925
2501.449652	0.083470	0.161386	1062.119629
2501.450596	0.083492	0.161386	1140.936523
2501.451526	0.083533	0.161386	1218.621948
2501.452423	0.083540	0.161386	1293.557373
2501.453349	0.083478	0.161386	1370.857788
2501.454279	0.083522	0.161386	1448.532959
2501.455202	0.083555	0.161386	1525.653931
2501.456098	0.083573	0.161386	1600.535400
2501.457038	0.083456	0.161386	1678.983887
2502.484199	0.872750	0.141824	404.956116
2502.485106	0.574325	0.141824	925.868835
2502.486043	0.089923	0.141824	1010.126770
2502.486960	0.083551	0.141824	1086.743042
2502.487892	0.083566	0.141824	1164.626221
2502.488789	0.083591	0.141824	1239.607666
2502.489707	0.083489	0.141824	1316.250366
2502.490643	0.083580	0.141824	1394.481567
2502.491556	0.083522	0.141824	1470.736938
2502.492445	0.083665	0.141824	1545.114746
2502.493391	0.083555	0.141824	1624.157471
2502.494317	0.083584	0.141824	1701.556274
2503.487449	0.866591	0.163440	383.033020
2503.488390	0.577800	0.163440	926.743103
2503.489306	0.088938	0.163440	1008.210327
2503.490220	0.083419	0.163440	1084.455444
2503.491119	0.083478	0.163440	1159.501953
2503.492058	0.083544	0.163440	1237.949463
2503.492977	0.083500	0.163440	1314.685791
2503.493890	0.083518	0.163440	1390.937744
2503.494780	0.083456	0.163440	1465.213379
2503.495732	0.083481	0.163440	1544.687744
2503.496657	0.083485	0.163440	1621.911499
2503.497546	0.083621	0.163440	1696.250244
2504.528846	0.866840	0.140551	384.009949
2504.529754	0.593090	0.140551	922.535278
2504.530666	0.090905	0.140551	1005.440247
2504.531613	0.083408	0.140551	1084.427856
2504.532517	0.083507	0.140551	1159.918213
2504.533407	0.083518	0.140551	1234.249268
2504.534338	0.083591	0.140551	1312.072754
2504.535242	0.083485	0.140551	1387.543335
2504.536134	0.083551	0.140551	1462.070801
2504.537023	0.083522	0.140551	1536.321655
2504.537957	0.083577	0.140551	1614.382202
2504.538856	0.083489	0.140551	1689.438599
2505.528274	0.869528	0.164084	386.070251
2505.529177	0.598143	0.164084	926.193604
2505.530093	0.091179	0.164084	1009.713745
2505.531026	0.083514	0.164084	1087.632690
2505.531940	0.083470	0.164084	1163.924683
2505.532839	0.083511	0.164084	1239.000854
2505.533771	0.083610	0.164084	1316.925049
2505.534675	0.083599	0.164084	1392.498169
2505.535577	0.083478	0.164084	1467.795166
2505.536465	0.083496	0.164084	1541.939697
2505.537408	0.083635	0.164084	1620.807739
2505.538309	0.083525	0.164084	1696.064087
2506.573292	0.904936	0.141095	428.939911
2506.574226	0.522056	0.141095	916.539917
2506.575118	0.088832	0.141095	995.777893
2506.576056	0.083503	0.141095	1074.104126
2506.576994	0.083467	0.141095	1152.395996
2506.577912	0.083551	0.141095	1229.095825
2506.578800	0.083463	0.141095	1303.211060
2506.579733	0.083485	0.141095	1381.102661
2506.580675	0.083577	0.141095	1459.831909
2506.581590	0.083555	0.141095	1536.284424
2506.582491	0.083551	0.141095	1611.563843
2506.583432	0.083463	0.141095	1690.102661
2507.569381	0.870234	0.160640	396.826874
2507.570322	0.546097	0.160640	910.704590
2507.571218	0.089227	0.160640	990.652222
2507.572175	0.083412	0.160640	1070.477417
2507.573100	0.083463	0.160640	1147.680786
2507.574007	0.083485	0.160640	1223.401733
2507.574912	0.083507	0.160640	1298.975586
2507.575862	0.083518	0.160640	1378.317749
2507.576794	0.083456	0.160640	1456.098511
2507.577694	0.083522	0.160640	1531.268066
2507.578612	0.083529	0.160640	1607.947754
2507.579548	0.083496	0.160640	1686.100098
2508.617989	0.893708	0.139274	444.173096
2508.618909	0.525168	0.139274	927.328125
2508.619832	0.088055	0.139274	1008.603271
2508.620723	0.083438	0.139274	1082.946045
2508.621677	0.083540	0.139274	1162.643311
2508.622575	0.083496	0.139274	1237.622803
2508.623495	0.083569	0.139274	1314.506592
2508.624383	0.083507	0.139274	1388.660889
2508.625342	0.083445	0.139274	1468.684448
2508.626272	0.083540	0.139274	1546.376709
2508.627166	0.083562	0.139274	1621.081177
2508.628099	0.083547	0.139274	1699.030884
2509.611023	0.922767	0.163299	469.688568
2509.611932	0.508894	0.163299	932.273193
2509.612847	0.087777	0.163299	1012.589233
2509.613739	0.083401	0.163299	1086.982788
2509.614710	0.083408	0.163299	1167.972168
2509.615617	0.083474	0.163299	1243.683228
2509.616508	0.083478	0.163299	1318.061890
2509.617443	0.083595	0.163299	1396.223145
2509.618353	0.083474	0.163299	1472.184570
2509.619271	0.083540	0.163299	1548.874268
2509.620163	0.083514	0.163299	1623.369141
2509.621111	0.083518	0.163299	1702.544312
2510.661859	0.879862	0.139677	402.976807
2510.662755	0.586359	0.139677	928.354126
2510.663694	0.090245	0.139677	1013.094543
2510.664607	0.083441	0.139677	1089.276367
2510.665503	0.083507	0.139677	1164.098755
2510.666392	0.083485	0.139677	1238.317017
2510.667334	0.083573	0.139677	1317.042725
2510.668245	0.083529	0.139677	1393.137695
2510.669138	0.083518	0.139677	1467.719360
2510.670052	0.083467	0.139677	1544.008057
2510.670969	0.083551	0.139677	1620.624390
2510.671865	0.083507	0.139677	1695.446777
2511.652840	0.875416	0.161732	409.694794
2511.653802	0.498893	0.161732	889.629639
2511.654709	0.087942	0.161732	969.392944
2511.655608	0.083470	0.161732	1044.432861
2511.656537	0.083569	0.161732	1122.068726
2511.657441	0.083540	0.161732	1197.588867
2511.658349	0.083533	0.161732	1273.436523
2511.659238	0.083540	0.161732	1347.703613
2511.660182	0.083525	0.161732	1426.551636
2511.661091	0.083613	0.161732	1502.556152
2511.661978	0.083470	0.161732	1576.594482
2511.662903	0.083602	0.161732	1653.926636
2512.705011	0.870040	0.136462	415.009216
2512.705951	0.504796	0.136462	889.517578
2512.706879	0.087521	0.136462	970.736816
2512.707768	0.083518	0.136462	1044.984375
2512.708691	0.083529	0.136462	1122.081665
2512.709618	0.083566	0.136462	1199.546997
2512.710536	0.083562	0.136462	1276.256958
2512.711421	0.083525	0.136462	1350.176880
2512.712356	0.083522	0.136462	1428.269653
2512.713287	0.083533	0.136462	1506.038574
2512.714203	0.083573	0.136462	1582.591431
2512.715098	0.083555	0.136462	1657.372925
2513.694962	0.911492	0.161406	437.516022
2513.695902	0.507122	0.161406	914.210327
2513.696820	0.087799	0.161406	994.809875
2513.697709	0.083478	0.161406	1069.021606
2513.698648	0.083591	0.161406	1147.513794
2513.699581	0.083492	0.161406	1225.412231
2513.700481	0.083522	0.161406	1300.581787
2513.701408	0.083529	0.161406	1378.013184
2513.702348	0.083540	0.161406	1456.540771
2513.703262	0.083551	0.161406	1532.906372
2513.704150	0.083518	0.161406	1607.070435
2513.705089	0.083441	0.161406	1685.421631
2514.747894	0.901941	0.139081	435.637451
2514.748857	0.487701	0.139081	905.293945
2514.749784	0.086898	0.139081	985.848572
2514.750676	0.083430	0.139081	1060.268311
2514.751623	0.083529	0.139081	1139.370361
2514.752554	0.083555	0.139081	1217.159790
2514.753450	0.083481	0.139081	1291.959229
2514.754371	0.083573	0.139081	1368.929932
2514.755296	0.083522	0.139081	1446.187500
2514.756216	0.083569	0.139081	1523.071289
2514.757116	0.083470	0.139081	1598.194702
2514.758048	0.083456	0.139081	1675.975464
2515.737825	0.870875	0.161313	391.022980
2515.738731	0.593093	0.161313	928.365479
2515.739618	0.091003	0.161313	1009.085510
2515.740563	0.083470	0.161313	1087.965088
2515.741477	0.083529	0.161313	1164.310669
2515.742397	0.083496	0.161313	1241.127075
2515.743291	0.083547	0.161313	1315.818359
2515.744220	0.083573	0.161313	1393.457642
2515.745137	0.083547	0.161313	1470.070557
2515.746054	0.083558	0.161313	1546.693604
2515.746943	0.083452	0.161313	1620.882568
2515.747891	0.083511	0.161313	1700.050781
2516.791004	0.871776	0.138730	386.196808
2516.791933	0.568187	0.138730	914.042725
2516.792828	0.089861	0.138730	994.468140
2516.793770	0.083448	0.138730	1073.076660
2516.794687	0.083492	0.138730	1149.639160
2516.795607	0.083459	0.138730	1226.421875
2516.796496	0.083463	0.138730	1300.620605
2516.797443	0.083514	0.138730	1379.708740
2516.798339	0.083463	0.138730	1454.491699
2516.799263	0.083558	0.138730	1531.699585
2516.800150	0.083459	0.138730	1605.728149
2516.801088	0.083577	0.138730	1684.123047
2517.780445	0.872743	0.163351	390.116058
2517.781356	0.585546	0.163351	923.548096
2517.782252	0.090337	0.163351	1004.489990
2517.783180	0.083492	0.163351	1081.970947
2517.784102	0.083441	0.163351	1158.903687
2517.785008	0.083438	0.163351	1234.498047
2517.785895	0.083463	0.163351	1308.529785
2517.786838	0.083533	0.163351	1387.301147
2517.787750	0.083448	0.163351	1463.406128
2517.788672	0.083496	0.163351	1540.389526
2517.789559	0.083452	0.163351	1614.411621
2517.790492	0.083525	0.163351	1692.340820
2518.834134	0.860186	0.136974	384.502960
2518.835031	0.605332	0.136974	927.485840
2518.835966	0.091238	0.136974	1012.793152
2518.836884	0.083456	0.136974	1089.405640
2518.837787	0.083492	0.136974	1164.799316
2518.838673	0.083518	0.136974	1238.796387
2518.839608	0.083646	0.136974	1317.005615
2518.840524	0.083522	0.136974	1393.511475
2518.841420	0.083500	0.136974	1468.327271
2518.842306	0.083463	0.136974	1542.275635
2518.843251	0.083544	0.136974	1621.224365
2518.844153	0.083474	0.136974	1696.518066
2519.823583	0.873702	0.159702	394.039795
2519.824482	0.593082	0.159702	927.220764
2519.825414	0.090868	0.159702	1011.909668
2519.826322	0.083503	0.159702	1087.730713
2519.827231	0.083518	0.159702	1163.648682
2519.828125	0.083467	0.159702	1238.267944
2519.829065	0.083533	0.159702	1316.788696
2519.829967	0.083547	0.159702	1392.148437
2519.830873	0.083489	0.159702	1467.789307
2519.831760	0.083500	0.159702	1541.853638
2519.832699	0.083540	0.159702	1620.297729
2519.833607	0.083591	0.159702	1696.198608
2520.876249	0.875621	0.139818	390.527100
2520.877180	0.570864	0.139818	922.001709
2520.878069	0.090146	0.139818	1002.141907
2520.879012	0.083485	0.139818	1080.868408
2520.879905	0.083551	0.139818	1155.479492
2520.880808	0.083591	0.139818	1230.962402
2520.881697	0.083481	0.139818	1305.177368
2520.882649	0.083514	0.139818	1384.683105
2520.883554	0.083459	0.139818	1460.213867
2520.884447	0.083591	0.139818	1534.860840
2520.885373	0.083613	0.139818	1612.286743
2520.886276	0.083551	0.139818	1687.733276
2521.867729	0.865924	0.160805	380.140656
2521.868679	0.575914	0.160805	927.259277
2521.869587	0.089062	0.160805	1008.128052
2521.870486	0.083478	0.160805	1083.174561
2521.871375	0.083566	0.160805	1157.464478
2521.872310	0.083507	0.160805	1235.543579
2521.873209	0.083591	0.160805	1310.692139
2521.874114	0.083485	0.160805	1386.246216
2521.875005	0.083470	0.160805	1460.618408
2521.875952	0.083558	0.160805	1539.748169
2521.876858	0.083481	0.160805	1615.382324
2521.877755	0.083500	0.160805	1690.281616
2522.917872	0.906610	0.137095	430.639801
2522.918820	0.500651	0.137095	905.256592
2522.919741	0.087598	0.137095	985.934021
2522.920633	0.083397	0.137095	1060.324341
2522.921591	0.083485	0.137095	1140.303101
2522.922525	0.083511	0.137095	1218.302124
2522.923427	0.083511	0.137095	1293.628784
2522.924349	0.083503	0.137095	1370.618896
2522.925290	0.083416	0.137095	1449.112915
2522.926200	0.083573	0.137095	1525.164307
2522.927093	0.083533	0.137095	1599.759033
2522.928041	0.083478	0.137095	1678.895996
2523.911655	0.866506	0.162993	402.058929
2523.912561	0.571956	0.162993	920.250610
2523.913490	0.090103	0.162993	1003.955872
2523.914426	0.083489	0.162993	1082.101318
2523.915352	0.083525	0.162993	1159.445801
2523.916243	0.083503	0.162993	1233.847290
2523.917159	0.083551	0.162993	1310.380005
2523.918087	0.083507	0.162993	1387.874634
2523.919006	0.083503	0.162993	1464.614258
2523.919904	0.083577	0.162993	1539.666138
2523.920856	0.083588	0.162993	1619.241577
2523.921783	0.083536	0.162993	1696.679810
2524.959430	0.869246	0.138126	377.252594
2524.960397	0.530420	0.138126	890.168701
2524.961322	0.088033	0.138126	971.599609
2524.962212	0.083445	0.138126	1045.865479
2524.963148	0.083507	0.138126	1124.028076
2524.964063	0.083555	0.138126	1200.480591
2524.964984	0.083584	0.138126	1277.461426
2524.965873	0.083536	0.138126	1351.725220
2524.966831	0.083474	0.138126	1431.693481
2524.967744	0.083566	0.138126	1507.988892
2524.968642	0.083518	0.138126	1582.988159
2524.969564	0.083514	0.138126	1659.988403
2525.955531	0.874772	0.160455	384.899567
2525.956519	0.501156	0.160455	880.041748
2525.957427	0.087887	0.160455	959.843140
2525.958317	0.083394	0.160455	1034.063354
2525.959273	0.083492	0.160455	1113.882080
2525.960189	0.083485	0.160455	1190.354492
2525.961108	0.083547	0.160455	1267.134521
2525.961996	0.083445	0.160455	1341.233521
2525.962939	0.083540	0.160455	1420.011719
2525.963846	0.083489	0.160455	1495.736084
2525.964739	0.083485	0.160455	1570.288330
2525.965662	0.083569	0.160455	1647.422852
2527.000275	0.869843	0.139419	388.819611
2527.001175	0.599714	0.139419	928.562500
2527.002115	0.090183	0.139419	1013.334595
2527.003025	0.083448	0.139419	1089.272705
2527.003918	0.083503	0.139419	1163.841309
2527.004808	0.083573	0.139419	1238.221313
2527.005749	0.083525	0.139419	1316.818726
2527.006643	0.083423	0.139419	1391.398804
2527.007535	0.083485	0.139419	1465.867554
2527.008463	0.083481	0.139419	1543.338379
2527.009384	0.083566	0.139419	1620.302368
2527.010287	0.083456	0.139419	1695.662964
2528.000472	0.870414	0.160902	383.852509
2528.001424	0.565598	0.160902	922.301880
2528.002333	0.088872	0.160902	1003.086609
2528.003231	0.083463	0.160902	1078.036499
2528.004118	0.083503	0.160902	1152.104004
2528.005049	0.083533	0.160902	1229.872925
2528.005955	0.083551	0.160902	1305.570190
2528.006861	0.083474	0.160902	1381.197754
2528.007752	0.083558	0.160902	1455.648193
2528.008708	0.083599	0.160902	1535.568481
2528.009622	0.083518	0.160902	1611.904053
2528.010526	0.083470	0.160902	1687.361328
2529.042385	0.858820	0.135234	377.021820
2529.043280	0.605585	0.135234	919.020142
2529.044242	0.089359	0.135234	1004.983643
2529.045167	0.083470	0.135234	1082.193848
2529.046058	0.083489	0.135234	1156.582397
2529.046974	0.083540	0.135234	1233.105103
2529.047914	0.083507	0.135234	1311.601807
2529.048832	0.083467	0.135234	1388.224365
2529.049718	0.083525	0.135234	1462.227905
2529.050649	0.083514	0.135234	1539.979858
2529.051585	0.083489	0.135234	1618.125366
2529.052506	0.083577	0.135234	1695.099487
2530.044630	0.866722	0.160068	387.424927
2530.045531	0.602051	0.160068	929.872681
2530.046418	0.091520	0.160068	1011.050720
2530.047376	0.083386	0.160068	1090.934692
2530.048316	0.083445	0.160068	1169.372803
2530.049216	0.083489	0.160068	1244.512695
2530.050136	0.083434	0.160068	1321.271851
2530.051064	0.083503	0.160068	1398.763062
2530.051981	0.083470	0.160068	1475.305420
2530.052877	0.083511	0.160068	1550.131104
2530.053809	0.083445	0.160068	1627.901733
2530.054739	0.083470	0.160068	1705.529297
2531.082444	0.864122	0.137747	379.349670
2531.083417	0.533866	0.137747	898.801270
2531.084345	0.087572	0.137747	980.068115
2531.085245	0.083511	0.137747	1055.227783
2531.086159	0.083555	0.137747	1131.596802
2531.087090	0.083511	0.137747	1209.345337
2531.088016	0.083529	0.137747	1286.693237
2531.088914	0.083459	0.137747	1361.639893
2531.089838	0.083555	0.137747	1438.844482
2531.090781	0.083511	0.137747	1517.595093
2531.091702	0.083496	0.137747	1594.494995
2531.092587	0.083536	0.137747	1668.424683
2532.089817	0.884974	0.158123	400.008423
2532.090752	0.544592	0.158123	909.202271
2532.091660	0.089044	0.158123	990.054382
2532.092593	0.083412	0.158123	1067.877686
2532.093499	0.083514	0.158123	1143.541748
2532.094420	0.083503	0.158123	1220.448364
2532.095308	0.083481	0.158123	1294.579834
2532.096254	0.083544	0.158123	1373.612183
2532.097185	0.083507	0.158123	1451.357300
2532.098077	0.083489	0.158123	1525.829346
2532.099020	0.083518	0.158123	1604.586914
2532.099921	0.083540	0.158123	1679.856445
2533.124047	0.862950	0.141381	378.835205
2533.124982	0.584993	0.141381	925.803345
2533.125923	0.088206	0.141381	1008.804810
2533.126825	0.083430	0.141381	1084.058838
2533.127714	0.083613	0.141381	1158.390991
2533.128657	0.083522	0.141381	1237.151978
2533.129571	0.083503	0.141381	1313.474121
2533.130486	0.083496	0.141381	1389.873047
2533.131371	0.083540	0.141381	1463.806030
2533.132307	0.083544	0.141381	1542.002930
2533.133210	0.083478	0.141381	1617.383301
2533.134101	0.083514	0.141381	1691.794678
2534.133969	0.866342	0.156092	384.655640
2534.134945	0.516456	0.156092	888.716980
2534.135857	0.088268	0.156092	969.217224
2534.136755	0.083503	0.156092	1044.203247
2534.137644	0.083478	0.156092	1118.415039
2534.138598	0.083591	0.156092	1198.161133
2534.139502	0.083496	0.156092	1273.641602
2534.140395	0.083533	0.156092	1348.236328
2534.141329	0.083569	0.156092	1426.290039
2534.142241	0.083492	0.156092	1502.435181
2534.143150	0.083518	0.156092	1578.353149
2534.144042	0.083536	0.156092	1652.867554
2535.165896	0.859208	0.139725	377.192230
2535.166789	0.610254	0.139725	922.149048
2535.167761	0.088521	0.139725	1008.190979
2535.168664	0.083434	0.139725	1083.531738
2535.169558	0.083496	0.139725	1158.177246
2535.170463	0.083518	0.139725	1233.761108
2535.171386	0.083580	0.139725	1310.905762
2535.172287	0.083525	0.139725	1386.162109
2535.173184	0.083584	0.139725	1461.136963
2535.174119	0.083588	0.139725	1539.291382
2535.175024	0.083595	0.139725	1614.944824
2535.175929	0.083474	0.139725	1690.488892
2536.177901	0.881565	0.156217	416.098633
2536.178809	0.560475	0.156217	925.009766
2536.179749	0.089282	0.156217	1008.935059
2536.180689	0.083397	0.156217	1087.328491
2536.181600	0.083459	0.156217	1163.360107
2536.182494	0.083401	0.156217	1237.920532
2536.183431	0.083401	0.156217	1316.067139
2536.184369	0.083478	0.156217	1394.369263
2536.185271	0.083459	0.156217	1469.649658
2536.186189	0.083529	0.156217	1546.329346
2536.187127	0.083489	0.156217	1624.641846
2536.188062	0.083441	0.156217	1702.659302
2537.207498	0.863683	0.140068	377.429413
2537.208446	0.572080	0.140068	919.761353
2537.209364	0.088960	0.140068	1001.426575
2537.210285	0.083408	0.140068	1078.245483
2537.211172	0.083511	0.140068	1152.319458
2537.212119	0.083401	0.140068	1231.300049
2537.213031	0.083452	0.140068	1307.408447
2537.213954	0.083610	0.140068	1384.580078
2537.214850	0.083434	0.140068	1459.336792
2537.215792	0.083386	0.140068	1537.886597
2537.216724	0.083474	0.140068	1615.684448
2537.217615	0.083507	0.140068	1690.089233
2538.221026	0.872347	0.155113	403.896851
2538.221995	0.492554	0.155113	881.181396
2538.222894	0.087872	0.155113	960.178589
2538.223784	0.083459	0.155113	1034.457520
2538.224734	0.083529	0.155113	1113.810059
2538.225636	0.083529	0.155113	1189.153320
2538.226552	0.083463	0.155113	1265.605591
2538.227441	0.083500	0.155113	1339.836914
2538.228380	0.083547	0.155113	1418.287842
2538.229284	0.083467	0.155113	1493.741821
2538.230172	0.083514	0.155113	1567.902588
2538.231087	0.083551	0.155113	1644.351807
2539.250179	0.879598	0.139274	437.160400
2539.251105	0.514354	0.139274	913.452515
2539.252016	0.087942	0.139274	993.567566
2539.252911	0.083412	0.139274	1068.221191
2539.253848	0.083500	0.139274	1146.460449
2539.254751	0.083438	0.139274	1221.804565
2539.255659	0.083496	0.139274	1297.619019
2539.256545	0.083481	0.139274	1371.583618
2539.257480	0.083606	0.139274	1449.755127
2539.258385	0.083467	0.139274	1525.292603
2539.259273	0.083514	0.139274	1599.453369
2539.260213	0.083485	0.139274	1677.929321
2540.263914	0.894745	0.154888	412.477386
2540.264843	0.548016	0.154888	921.584595
2540.265741	0.089319	0.154888	1001.792908
2540.266660	0.083485	0.154888	1078.515747
2540.267579	0.083591	0.154888	1155.336182
2540.268485	0.083503	0.154888	1230.990234
2540.269380	0.083467	0.154888	1305.692993
2540.270312	0.083507	0.154888	1383.521606
2540.271216	0.083573	0.154888	1459.071533
2540.272117	0.083533	0.154888	1534.334473
2540.273005	0.083522	0.154888	1608.501709
2540.273958	0.083599	0.154888	1688.171143
2541.293041	0.880474	0.140048	413.822601
2541.293945	0.565448	0.140048	924.987549
2541.294835	0.090150	0.140048	1005.221191
2541.295775	0.083474	0.140048	1083.686890
2541.296717	0.083459	0.140048	1162.305664
2541.297613	0.083536	0.140048	1237.154297
2541.298528	0.083536	0.140048	1313.590088
2541.299464	0.083606	0.140048	1391.845215
2541.300393	0.083522	0.140048	1469.436890
2541.301292	0.083485	0.140048	1544.489990
2541.302198	0.083602	0.140048	1620.233643
2541.303128	0.083489	0.140048	1697.878174
2542.307012	0.855392	0.153131	371.240082
2542.307967	0.571454	0.153131	916.978516
2542.308891	0.088403	0.153131	998.663208
2542.309818	0.083342	0.153131	1075.921509
2542.310707	0.083474	0.153131	1150.130005
2542.311666	0.083514	0.153131	1230.220337
2542.312566	0.083478	0.153131	1305.350342
2542.313486	0.083503	0.153131	1382.173462
2542.314378	0.083438	0.153131	1456.599731
2542.315325	0.083434	0.153131	1535.611572
2542.316238	0.083496	0.153131	1611.843506
2542.317136	0.083496	0.153131	1686.822998
2543.335134	0.870029	0.138658	389.773102
2543.336042	0.594067	0.138658	929.186279
2543.336926	0.091029	0.138658	1009.655945
2543.337884	0.083459	0.138658	1089.610107
2543.338785	0.083584	0.138658	1164.919312
2543.339674	0.083635	0.138658	1239.270996
2543.340598	0.083657	0.138658	1316.570312
2543.341533	0.083547	0.138658	1394.687134
2543.342434	0.083544	0.138658	1469.959961
2543.343329	0.083628	0.138658	1544.807007
2543.344272	0.083621	0.138658	1623.661255
2543.345187	0.083569	0.138658	1700.127197
2544.349648	0.867751	0.154187	383.546143
2544.350611	0.532643	0.154187	896.481201
2544.351503	0.089062	0.154187	975.924927
2544.352433	0.083474	0.154187	1053.555908
2544.353331	0.083529	0.154187	1128.564941
2544.354261	0.083584	0.154187	1206.298096
2544.355168	0.083533	0.154187	1282.062256
2544.356063	0.083599	0.154187	1356.883057
2544.356995	0.083562	0.154187	1434.762817
2544.357913	0.083558	0.154187	1511.469360
2544.358810	0.083525	0.154187	1586.391602
2544.359701	0.083511	0.154187	1660.799683
2545.378499	0.862375	0.138924	375.133331
2545.379477	0.522345	0.138924	885.986755
2545.380415	0.087623	0.138924	968.177368
2545.381331	0.083511	0.138924	1044.673218
2545.382218	0.083536	0.138924	1118.770020
2545.383156	0.083533	0.138924	1197.123657
2545.384057	0.083481	0.138924	1272.340454
2545.384960	0.083503	0.138924	1347.744019
2545.385843	0.083492	0.138924	1421.467896
2545.386781	0.083551	0.138924	1499.838745
2545.387699	0.083540	0.138924	1576.528564
2545.388599	0.083507	0.138924	1651.684937
2546.392292	0.871728	0.153724	394.021271
2546.393196	0.592918	0.153724	930.018677
2546.394083	0.090967	0.153724	1010.706238
2546.395024	0.083379	0.153724	1089.165771
2546.395962	0.083529	0.153724	1167.515991
2546.396864	0.083540	0.153724	1242.869141
2546.397784	0.083496	0.153724	1319.685547
2546.398704	0.083463	0.153724	1396.471680
2546.399644	0.083540	0.153724	1474.999268
2546.400540	0.083474	0.153724	1549.792114
2546.401460	0.083511	0.153724	1626.621948
2546.402400	0.083503	0.153724	1705.115112
2547.421406	0.871344	0.141059	390.362091
2547.422314	0.587003	0.141059	923.360962
2547.423204	0.090553	0.141059	1003.953125
2547.424154	0.083408	0.141059	1083.190918
2547.425065	0.083467	0.141059	1159.229126
2547.425982	0.083518	0.141059	1235.815186
2547.426873	0.083522	0.141059	1310.233032
2547.427835	0.083496	0.141059	1390.556274
2547.428734	0.083474	0.141059	1465.599487
2547.429647	0.083518	0.141059	1541.851440
2547.430541	0.083518	0.141059	1616.516602
2547.431492	0.083507	0.141059	1695.931885
2548.434656	0.884498	0.154368	408.638214
2548.435599	0.526992	0.154368	905.591858
2548.436488	0.089037	0.154368	984.745605
2548.437446	0.083430	0.154368	1064.671753
2548.438344	0.083522	0.154368	1139.674316
2548.439235	0.083558	0.154368	1214.124756
2548.440182	0.083632	0.154368	1293.323853
2548.441078	0.083492	0.154368	1368.133057
2548.442001	0.083522	0.154368	1445.223633
2548.442895	0.083489	0.154368	1519.862549
2548.443834	0.083569	0.154368	1598.334106
2548.444747	0.083474	0.154368	1674.546021
2549.464784	0.862965	0.137469	380.567627
2549.465686	0.595100	0.137469	917.347900
2549.466627	0.089410	0.137469	1001.483093
2549.467548	0.083459	0.137469	1078.349243
2549.468446	0.083536	0.137469	1153.364868
2549.469336	0.083470	0.137469	1227.653564
2549.470272	0.083573	0.137469	1305.877930
2549.471177	0.083463	0.137469	1381.412109
2549.472068	0.083441	0.137469	1455.758179
2549.472995	0.083580	0.137469	1533.237183
2549.473901	0.083478	0.137469	1608.868042
2549.474794	0.083496	0.137469	1683.430054
2550.476756	0.867869	0.156431	381.862213
2550.477659	0.603593	0.156431	926.906250
2550.478544	0.091615	0.156431	1007.985535
2550.479511	0.083518	0.156431	1088.747559
2550.480406	0.083474	0.156431	1163.456909
2550.481310	0.083518	0.156431	1238.957275
2550.482200	0.083551	0.156431	1313.317627
2550.483140	0.083558	0.156431	1391.862427
2550.484047	0.083536	0.156431	1467.629883
2550.484940	0.083514	0.156431	1542.208252
2550.485873	0.083533	0.156431	1620.144287
2550.486786	0.083540	0.156431	1696.416382
2551.508978	0.898033	0.136789	418.483582
2551.509892	0.555282	0.136789	926.011230
2551.510778	0.090070	0.136789	1005.812866
2551.511721	0.083445	0.136789	1084.501343
2551.512666	0.083595	0.136789	1163.498535
2551.513582	0.083584	0.136789	1240.061523
2551.514468	0.083606	0.136789	1314.136353
2551.515414	0.083588	0.136789	1393.210205
2551.516350	0.083676	0.136789	1471.530518
2551.517248	0.083643	0.136789	1546.641602
2551.518171	0.083628	0.136789	1623.830200
2551.519115	0.083577	0.136789	1702.726562
2552.517898	0.919021	0.156338	453.077393
2552.518823	0.504386	0.156338	919.634460
2552.519723	0.088202	0.156338	999.016174
2552.520649	0.083430	0.156338	1076.272461
2552.521583	0.083485	0.156338	1154.247559
2552.522512	0.083452	0.156338	1231.774658
2552.523410	0.083438	0.156338	1306.701538
2552.524326	0.083459	0.156338	1383.150391
2552.525262	0.083525	0.156338	1461.330200
2552.526176	0.083489	0.156338	1537.638916
2552.527063	0.083503	0.156338	1611.706421
2552.528006	0.083438	0.156338	1690.387939
2553.553884	0.880049	0.137812	398.662109
2553.554785	0.593108	0.137812	933.052307
2553.555670	0.091282	0.137812	1013.836670
2553.556624	0.083492	0.137812	1093.488403
2553.557525	0.083507	0.137812	1168.728271
2553.558449	0.083529	0.137812	1245.909180
2553.559337	0.083485	0.137812	1320.043945
2553.560279	0.083536	0.137812	1398.735229
2553.561184	0.083489	0.137812	1474.292603
2553.562077	0.083485	0.137812	1548.844849
2553.563008	0.083624	0.137812	1626.699097
2553.563910	0.083522	0.137812	1702.035645
2554.558980	0.917893	0.156765	458.028656
2554.559903	0.515797	0.156765	934.109375
2554.560797	0.088378	0.156765	1013.119019
2554.561689	0.083459	0.156765	1087.564819
2554.562624	0.083569	0.156765	1165.702148
2554.563533	0.083452	0.156765	1241.560181
2554.564432	0.083522	0.156765	1316.646240
2554.565364	0.083533	0.156765	1394.498779
2554.566269	0.083577	0.156765	1470.135620
2554.567170	0.083438	0.156765	1545.312866
2554.568060	0.083503	0.156765	1619.630859
2554.568994	0.083599	0.156765	1697.711914
2555.597774	0.859054	0.136007	375.406586
2555.598710	0.574926	0.136007	913.536865
2555.599611	0.090022	0.136007	994.646667
2555.600510	0.083416	0.136007	1069.637207
2555.601397	0.083492	0.136007	1143.694946
2555.602336	0.083522	0.136007	1222.121826
2555.603238	0.083489	0.136007	1297.428711
2555.604145	0.083551	0.136007	1373.209473
2555.605036	0.083481	0.136007	1447.591431
2555.605988	0.083580	0.136007	1527.159912
2555.606896	0.083441	0.136007	1602.924438
2555.607797	0.083522	0.136007	1678.177490
2556.600302	0.872886	0.156100	412.874969
2556.601248	0.514512	0.156100	899.603088
2556.602171	0.087576	0.156100	980.435425
2556.603063	0.083379	0.156100	1054.809448
2556.604016	0.083419	0.156100	1134.307983
2556.604933	0.083419	0.156100	1210.803345
2556.605855	0.083470	0.156100	1287.763062
2556.606748	0.083441	0.156100	1362.276001
2556.607682	0.083401	0.156100	1440.172363
2556.608624	0.083419	0.156100	1518.753296
2556.609523	0.083408	0.156100	1593.737305
2556.610450	0.083485	0.156100	1671.128052
2557.641935	0.862174	0.135874	379.356598
2557.642832	0.593057	0.135874	911.328369
2557.643793	0.088766	0.135874	996.632385
2557.644715	0.083375	0.135874	1073.504395
2557.645605	0.083474	0.135874	1147.796387
2557.646560	0.083445	0.135874	1227.486206
2557.647475	0.083423	0.135874	1303.818115
2557.648400	0.083452	0.135874	1381.011353
2557.649286	0.083503	0.135874	1454.995361
2557.650220	0.083496	0.135874	1532.980713
2557.651144	0.083474	0.135874	1610.110840
2557.652038	0.083438	0.135874	1684.703979
2558.641365	0.861551	0.156781	375.636444
2558.642261	0.598260	0.156781	911.677856
2558.643225	0.088824	0.156781	997.304626
2558.644130	0.083430	0.156781	1072.808960
2558.645015	0.083489	0.156781	1146.696533
2558.645947	0.083555	0.156781	1224.569458
2558.646865	0.083459	0.156781	1301.185303
2558.647777	0.083419	0.156781	1377.263550
2558.648665	0.083489	0.156781	1451.401611
2558.649615	0.083540	0.156781	1530.764648
2558.650511	0.083511	0.156781	1605.590332
2558.651399	0.083485	0.156781	1679.725098
2559.685140	0.929352	0.132410	478.616180
2559.686057	0.486409	0.132410	924.652954
2559.686962	0.087528	0.132410	1003.865845
2559.687852	0.083372	0.132410	1078.066528
2559.688801	0.083540	0.132410	1157.346069
2559.689710	0.083427	0.132410	1233.180786
2559.690614	0.083456	0.132410	1308.624878
2559.691537	0.083525	0.132410	1385.718750
2559.692437	0.083533	0.132410	1460.898193
2559.693330	0.083430	0.132410	1535.401367
2559.694218	0.083408	0.132410	1609.467896
2559.695157	0.083525	0.132410	1687.898193
2560.682213	0.872878	0.156801	405.015594
2560.683126	0.560574	0.156801	916.819336
2560.684056	0.089689	0.156801	1000.229858
2560.685002	0.083445	0.156801	1079.168701
2560.685921	0.083430	0.156801	1155.841064
2560.686814	0.083500	0.156801	1230.406372
2560.687749	0.083547	0.156801	1308.523193
2560.688676	0.083463	0.156801	1385.893555
2560.689598	0.083544	0.156801	1462.920898
2560.690485	0.083463	0.156801	1536.952637
2560.691428	0.083500	0.156801	1615.692871
2560.692351	0.083489	0.156801	1692.753052
2561.731061	0.890204	0.134641	417.505615
2561.731971	0.561160	0.134641	928.160889
2561.732857	0.089993	0.134641	1007.894409
2561.733792	0.083427	0.134641	1085.898193
2561.734735	0.083459	0.134641	1164.600464
2561.735628	0.083412	0.134641	1239.087280
2561.736546	0.083463	0.134641	1315.706421
2561.737489	0.083438	0.134641	1394.387939
2561.738402	0.083470	0.134641	1470.596436
2561.739292	0.083445	0.134641	1544.862305
2561.740241	0.083463	0.134641	1624.068848
2561.741175	0.083434	0.134641	1701.996094
2562.724310	0.865942	0.157647	384.478424
2562.725209	0.591240	0.157647	916.003418
2562.726148	0.089337	0.157647	999.890991
2562.727061	0.083452	0.157647	1076.082764
2562.727953	0.083540	0.157647	1150.600464
2562.728880	0.083511	0.157647	1228.014893
2562.729790	0.083507	0.157647	1304.006348
2562.730713	0.083522	0.157647	1381.096924
2562.731603	0.083507	0.157647	1455.418213
2562.732545	0.083595	0.157647	1534.164673
2562.733446	0.083470	0.157647	1609.371582
2562.734337	0.083514	0.157647	1683.782959
2563.774460	0.884993	0.132382	430.106476
2563.775385	0.518115	0.132382	909.363037
2563.776292	0.088352	0.132382	989.498352
2563.777183	0.083390	0.132382	1063.798706
2563.778121	0.083456	0.132382	1142.080200
2563.779030	0.083547	0.132382	1218.024780
2563.779935	0.083500	0.132382	1293.592041
2563.780822	0.083529	0.132382	1367.682373
2563.781762	0.083544	0.132382	1446.213501
2563.782665	0.083452	0.132382	1521.570801
2563.783560	0.083518	0.132382	1596.319458
2563.784490	0.083555	0.132382	1674.025269
2564.765908	0.869670	0.154968	388.742676
2564.766810	0.594364	0.154968	924.859070
2564.767756	0.090579	0.154968	1010.546448
2564.768669	0.083529	0.154968	1086.808472
2564.769570	0.083492	0.154968	1162.035156
2564.770461	0.083525	0.154968	1236.456299
2564.771420	0.083529	0.154968	1316.560669
2564.772325	0.083514	0.154968	1392.141235
2564.773224	0.083544	0.154968	1467.247070
2564.774114	0.083566	0.154968	1541.620483
2564.775052	0.083624	0.154968	1620.060059
2564.775960	0.083551	0.154968	1695.924438
2565.817850	0.882978	0.133836	420.297760
2565.818758	0.555806	0.133836	924.969360
2565.819642	0.089846	0.133836	1004.393372
2565.820580	0.083383	0.133836	1082.606201
2565.821518	0.083489	0.133836	1160.918701
2565.822416	0.083529	0.133836	1235.927734
2565.823330	0.083430	0.133836	1312.182861
2565.824263	0.083481	0.133836	1390.071045
2565.825193	0.083430	0.133836	1467.661133
2565.826084	0.083522	0.133836	1542.078979
2565.827005	0.083463	0.133836	1618.948486
2565.827939	0.083507	0.133836	1696.944092
2566.808020	0.864478	0.156253	384.692505
2566.808912	0.599579	0.156253	919.516846
2566.809869	0.089531	0.156253	1005.198242
2566.810812	0.083445	0.156253	1083.886719
2566.811714	0.083588	0.156253	1159.282715
2566.812639	0.083511	0.156253	1236.530151
2566.813580	0.083481	0.156253	1315.086182
2566.814492	0.083467	0.156253	1391.207886
2566.815382	0.083518	0.156253	1465.538940
2566.816330	0.083569	0.156253	1544.762695
2566.817259	0.083481	0.156253	1622.316895
2566.818171	0.083569	0.156253	1698.532104
2567.860950	0.872523	0.134279	390.890381
2567.861939	0.489467	0.134279	874.972839
2567.862849	0.087612	0.134279	954.700073
2567.863767	0.083438	0.134279	1031.295654
2567.864655	0.083569	0.134279	1105.505249
2567.865589	0.083489	0.134279	1183.483765
2567.866495	0.083489	0.134279	1259.124634
2567.867410	0.083489	0.134279	1335.516846
2567.868307	0.083547	0.134279	1410.458862
2567.869271	0.083481	0.134279	1490.934937
2567.870189	0.083500	0.134279	1567.587646
2567.871075	0.083507	0.134279	1641.574951
2568.850634	0.867213	0.156793	381.573792
2568.851605	0.519023	0.156793	885.545532
2568.852512	0.088374	0.156793	965.700806
2568.853403	0.083529	0.156793	1040.125244
2568.854341	0.083665	0.156793	1118.602539
2568.855247	0.083599	0.156793	1194.342896
2568.856145	0.083536	0.156793	1269.358521
2568.857029	0.083529	0.156793	1343.198242
2568.857980	0.083610	0.156793	1422.710937
2568.858879	0.083566	0.156793	1497.836426
2568.859784	0.083558	0.156793	1573.456787
2568.860676	0.083547	0.156793	1647.981079
2569.904605	0.871234	0.132724	388.570404
2569.905536	0.568473	0.132724	917.818726
2569.906426	0.089956	0.132724	997.879639
2569.907359	0.083588	0.132724	1075.866943
2569.908262	0.083628	0.132724	1151.382935
2569.909167	0.083536	0.132724	1226.983398
2569.910053	0.083544	0.132724	1301.003174
2569.911002	0.083602	0.132724	1380.341797
2569.911905	0.083536	0.132724	1455.775146
2569.912800	0.083525	0.132724	1530.530396
2569.913720	0.083540	0.132724	1607.387207
2569.914628	0.083562	0.132724	1683.261475
2570.892489	0.863621	0.158211	380.856689
2570.893386	0.593536	0.158211	913.258789
2570.894369	0.088103	0.158211	999.864075
2570.895275	0.083441	0.158211	1075.461792
2570.896174	0.083536	0.158211	1150.561035
2570.897104	0.083602	0.158211	1228.311157
2570.898001	0.083613	0.158211	1303.312256
2570.898899	0.083503	0.158211	1378.298340
2570.899788	0.083518	0.158211	1452.545898
2570.900726	0.083639	0.158211	1530.999146
2570.901626	0.083533	0.158211	1606.178589
2570.902534	0.083580	0.158211	1682.069580
2571.946226	0.875724	0.131370	410.714478
2571.947140	0.553931	0.131370	917.007141
2571.948056	0.088813	0.131370	998.360291
2571.948956	0.083394	0.131370	1073.414551
2571.949908	0.083540	0.131370	1152.944702
2571.950836	0.083452	0.131370	1230.388306
2571.951748	0.083540	0.131370	1306.576782
2571.952644	0.083536	0.131370	1381.425415
2571.953581	0.083467	0.131370	1459.633789
2571.954519	0.083438	0.131370	1537.898193
2571.955411	0.083485	0.131370	1612.366943
2571.956332	0.083434	0.131370	1689.209473
2572.937420	0.858468	0.155685	373.433594
2572.938350	0.598147	0.155685	929.710266
2572.939276	0.089176	0.155685	1012.287292
2572.940191	0.083430	0.155685	1088.625854
2572.941086	0.083591	0.155685	1163.440063
2572.942021	0.083500	0.155685	1241.512329
2572.942956	0.083511	0.155685	1319.594849
2572.943877	0.083522	0.155685	1396.518311
2572.944768	0.083529	0.155685	1470.942749
2572.945713	0.083544	0.155685	1549.891602
2572.946654	0.083492	0.155685	1628.458008
2572.947544	0.083566	0.155685	1702.831421
2573.989096	0.871725	0.131266	407.967224
2573.990011	0.556425	0.131266	917.095703
2573.990901	0.089773	0.131266	996.993652
2573.991853	0.083481	0.131266	1076.468018
2573.992779	0.083467	0.131266	1153.758301
2573.993703	0.083522	0.131266	1230.932373
2573.994603	0.083496	0.131266	1306.078857
2573.995556	0.083529	0.131266	1385.682007
2573.996479	0.083514	0.131266	1462.765869
2573.997371	0.083478	0.131266	1537.228027
2573.998319	0.083423	0.131266	1616.312866
2573.999227	0.083496	0.131266	1692.127319
2574.980619	0.911136	0.157313	458.301636
2574.981538	0.508660	0.157313	925.759888
2574.982437	0.088352	0.157313	1005.188354
2574.983324	0.083379	0.157313	1079.145386
2574.984264	0.083507	0.157313	1157.642090
2574.985167	0.083459	0.157313	1233.005981
2574.986056	0.083474	0.157313	1307.214478
2574.986971	0.083518	0.157313	1383.633545
2574.987893	0.083529	0.157313	1460.647339
2574.988790	0.083474	0.157313	1535.523682
2574.989682	0.083529	0.157313	1610.031616
2574.990619	0.083621	0.157313	1688.384155
2576.030935	0.872659	0.133155	385.715149
2576.031848	0.592636	0.133155	926.791382
2576.032739	0.090740	0.133155	1007.640503
2576.033679	0.083448	0.133155	1086.082031
2576.034591	0.083474	0.133155	1162.210449
2576.035486	0.083485	0.133155	1236.929687
2576.036375	0.083507	0.133155	1311.167480
2576.037322	0.083606	0.133155	1390.342285
2576.038227	0.083463	0.133155	1465.876465
2576.039131	0.083566	0.133155	1541.419800
2576.040020	0.083470	0.133155	1615.625000
2576.040964	0.083489	0.133155	1694.438354
2577.024468	0.873025	0.152753	385.003967
2577.025385	0.587703	0.152753	923.927307
2577.026321	0.090487	0.152753	1008.623169
2577.027242	0.083580	0.152753	1085.600586
2577.028144	0.083525	0.152753	1160.940430
2577.029046	0.083536	0.152753	1236.290283
2577.029977	0.083544	0.152753	1314.069458
2577.030874	0.083540	0.152753	1389.004883
2577.031776	0.083492	0.152753	1464.315063
2577.032663	0.083562	0.152753	1538.434570
2577.033598	0.083536	0.152753	1616.541138
2577.034504	0.083555	0.152753	1692.241699
2578.072570	0.915007	0.130972	441.948517
2578.073517	0.493341	0.130972	909.142517
2578.074446	0.087407	0.130972	990.343811
2578.075338	0.083448	0.130972	1064.779907
2578.076282	0.083529	0.130972	1143.631348
2578.077211	0.083525	0.130972	1221.226440
2578.078113	0.083529	0.130972	1296.569702
2578.079028	0.083478	0.130972	1372.951904
2578.079974	0.083562	0.130972	1452.001587
2578.080893	0.083540	0.130972	1528.774902
2578.081780	0.083522	0.130972	1602.858643
2578.082731	0.083580	0.130972	1682.343506
2579.068668	0.897686	0.153913	436.275208
2579.069604	0.512373	0.153913	915.856445
2579.070516	0.087858	0.153913	995.982666
2579.071413	0.083423	0.153913	1070.812988
2579.072354	0.083533	0.153913	1149.417236
2579.073288	0.083522	0.153913	1227.426514
2579.074187	0.083591	0.153913	1302.575073
2579.075104	0.083547	0.153913	1379.187988
2579.076037	0.083441	0.153913	1457.038574
2579.076953	0.083522	0.153913	1533.544434
2579.077842	0.083518	0.153913	1607.791992
2579.078785	0.083427	0.153913	1686.463135
2580.113619	0.870809	0.132531	387.510132
2580.114514	0.594781	0.132531	919.839539
2580.115490	0.088956	0.132531	1006.660889
2580.116424	0.083397	0.132531	1084.553833
2580.117319	0.083580	0.132531	1159.358276
2580.118244	0.083456	0.132531	1236.554932
2580.119174	0.083496	0.132531	1314.206299
2580.120094	0.083518	0.132531	1391.042969
2580.120987	0.083492	0.132531	1465.601685
2580.121918	0.083492	0.132531	1543.333130
2580.122856	0.083467	0.132531	1621.625000
2580.123756	0.083481	0.132531	1696.758301
2581.113283	0.855472	0.153792	370.419556
2581.114246	0.542681	0.153792	893.021057
2581.115159	0.088334	0.153792	973.669739
2581.116087	0.083489	0.153792	1051.147339
2581.116976	0.083438	0.153792	1125.323242
2581.117941	0.083390	0.153792	1205.794434
2581.118868	0.083489	0.153792	1283.188477
2581.119757	0.083500	0.153792	1357.419800
2581.120697	0.083467	0.153792	1435.878540
2581.121614	0.083416	0.153792	1512.370605
2581.122521	0.083467	0.153792	1588.074951
2581.123426	0.083492	0.153792	1663.635620
2582.154210	0.880122	0.133880	400.455536
2582.155113	0.583550	0.133880	927.401001
2582.156000	0.090590	0.133880	1007.753967
2582.156944	0.083423	0.133880	1086.505127
2582.157855	0.083423	0.133880	1162.503296
2582.158770	0.083456	0.133880	1238.865356
2582.159671	0.083456	0.133880	1314.059082
2582.160637	0.083551	0.133880	1394.769409
2582.161541	0.083423	0.133880	1470.183716
2582.162431	0.083547	0.133880	1544.540894
2582.163343	0.083481	0.133880	1620.676025
2582.164254	0.083500	0.133880	1696.744263
2583.157966	0.861427	0.155967	379.027863
2583.158861	0.599063	0.155967	915.188843
2583.159808	0.089447	0.155967	999.895142
2583.160717	0.083394	0.155967	1075.699951
2583.161608	0.083500	0.155967	1150.098267
2583.162541	0.083569	0.155967	1228.068481
2583.163435	0.083569	0.155967	1302.779419
2583.164338	0.083441	0.155967	1378.126831
2583.165226	0.083489	0.155967	1452.264893
2583.166177	0.083536	0.155967	1531.708008
2583.167085	0.083529	0.155967	1607.552368
2583.167992	0.083492	0.155967	1683.280029
2584.196085	0.898217	0.134798	425.754639
2584.197004	0.537294	0.134798	919.527588
2584.197908	0.088883	0.134798	999.877869
2584.198796	0.083408	0.134798	1073.944336
2584.199748	0.083467	0.134798	1153.404785
2584.200654	0.083474	0.134798	1229.032349
2584.201552	0.083485	0.134798	1304.001953
2584.202480	0.083511	0.134798	1381.499878
2584.203380	0.083489	0.134798	1456.639771
2584.204276	0.083503	0.134798	1531.458862
2584.205165	0.083514	0.134798	1605.703125
2584.206091	0.083617	0.134798	1683.132446
2585.201649	0.875189	0.155399	409.588531
2585.202586	0.540557	0.155399	916.090088
2585.203479	0.088960	0.155399	995.531311
2585.204412	0.083503	0.155399	1073.439941
2585.205338	0.083511	0.155399	1150.770874
2585.206261	0.083518	0.155399	1227.858032
2585.207160	0.083555	0.155399	1302.973633
2585.208089	0.083551	0.155399	1380.592529
2585.209017	0.083518	0.155399	1458.097290
2585.209930	0.083485	0.155399	1534.319214
2585.210816	0.083478	0.155399	1608.280518
2585.211763	0.083511	0.155399	1687.365234
2586.237198	0.920599	0.134331	464.902710
2586.238109	0.517310	0.134331	936.171753
2586.239040	0.087814	0.134331	1017.926331
2586.239929	0.083507	0.134331	1092.164185
2586.240871	0.083503	0.134331	1170.824463
2586.241800	0.083500	0.134331	1248.395752
2586.242715	0.083599	0.134331	1324.888550
2586.243609	0.083511	0.134331	1399.547119
2586.244556	0.083474	0.134331	1478.597168
2586.245488	0.083588	0.134331	1556.500854
2586.246395	0.083580	0.134331	1632.308228
2586.247315	0.083507	0.134331	1709.134766
2587.246339	0.889310	0.153812	441.987213
2587.247249	0.532112	0.153812	926.208984
2587.248171	0.088041	0.153812	1007.382568
2587.249072	0.083423	0.153812	1082.546509
2587.250014	0.083492	0.153812	1161.196411
2587.250923	0.083500	0.153812	1237.097656
2587.251842	0.083503	0.153812	1313.837280
2587.252729	0.083463	0.153812	1387.869141
2587.253684	0.083412	0.153812	1467.527466
2587.254577	0.083452	0.153812	1542.050293
2587.255465	0.083452	0.153812	1616.155762
2587.256412	0.083573	0.153812	1695.299438
2588.278728	0.868887	0.133622	382.310150
2588.279701	0.515782	0.133622	884.166504
2588.280610	0.088213	0.133622	964.352051
2588.281499	0.083474	0.133622	1038.560547
2588.282442	0.083610	0.133622	1117.404419
2588.283361	0.083507	0.133622	1194.147461
2588.284261	0.083518	0.133622	1269.313721
2588.285151	0.083500	0.133622	1343.628540
2588.286094	0.083624	0.133622	1422.486206
2588.287001	0.083481	0.133622	1498.203857
2588.287896	0.083456	0.133622	1572.896851
2588.288780	0.083533	0.133622	1646.739746
2589.289937	0.867275	0.151125	384.202972
2589.290848	0.593123	0.151125	924.537598
2589.291734	0.091168	0.151125	1005.312622
2589.292689	0.083470	0.151125	1085.026855
2589.293598	0.083518	0.151125	1160.944824
2589.294501	0.083547	0.151125	1236.388062
2589.295389	0.083562	0.151125	1310.591187
2589.296339	0.083562	0.151125	1389.975098
2589.297246	0.083547	0.151125	1465.752563
2589.298135	0.083602	0.151125	1540.074951
2589.299073	0.083562	0.151125	1618.456177
2589.299988	0.083610	0.151125	1694.958984
2590.321101	0.864430	0.137207	379.484711
2590.322070	0.529530	0.137207	892.599365
2590.322974	0.088748	0.137207	972.827148
2590.323877	0.083507	0.137207	1048.234009
2590.324761	0.083533	0.137207	1122.076904
2590.325696	0.083569	0.137207	1200.214233
2590.326606	0.083562	0.137207	1276.255615
2590.327504	0.083569	0.137207	1351.300903
2590.328439	0.083646	0.137207	1429.510132
2590.329345	0.083591	0.137207	1505.243896
2590.330249	0.083514	0.137207	1580.740967
2590.331140	0.083569	0.137207	1655.201294
2591.333330	0.864899	0.151262	384.015015
2591.334221	0.598055	0.151262	916.882385
2591.335197	0.089205	0.151262	1003.946777
2591.336133	0.083412	0.151262	1082.020264
2591.337022	0.083536	0.151262	1156.284058
2591.337942	0.083507	0.151262	1233.110596
2591.338871	0.083481	0.151262	1310.664795
2591.339788	0.083533	0.151262	1387.264282
2591.340682	0.083492	0.151262	1461.906494
2591.341635	0.083507	0.151262	1541.488770
2591.342571	0.083496	0.151262	1619.641113
2591.343470	0.083555	0.151262	1694.756836
2592.363213	0.863229	0.134073	379.820648
2592.364195	0.533936	0.134073	904.145386
2592.365120	0.087411	0.134073	985.000488
2592.366034	0.083514	0.134073	1061.332642
2592.366924	0.083485	0.134073	1135.634399
2592.367871	0.083503	0.134073	1214.712158
2592.368800	0.083529	0.134073	1292.310669
2592.369692	0.083551	0.134073	1366.838135
2592.370613	0.083496	0.134073	1443.738037
2592.371544	0.083544	0.134073	1521.517212
2592.372460	0.083529	0.134073	1598.029785
2592.373358	0.083533	0.134073	1673.042114
2593.376509	0.916963	0.150863	446.560913
2593.377442	0.512080	0.150863	924.331665
2593.378367	0.087902	0.150863	1005.640625
2593.379255	0.083394	0.150863	1079.694092
2593.380209	0.083511	0.150863	1159.363281
2593.381128	0.083470	0.150863	1236.072632
2593.382015	0.083500	0.150863	1310.136963
2593.382948	0.083500	0.150863	1388.042236
2593.383864	0.083481	0.150863	1464.511230
2593.384783	0.083496	0.150863	1541.244141
2593.385682	0.083511	0.150863	1616.320312
2593.386636	0.083580	0.150863	1696.055908
2594.405329	0.877991	0.137010	388.071899
2594.406311	0.504822	0.137010	883.806885
2594.407214	0.087927	0.137010	963.205200
2594.408101	0.083467	0.137010	1037.240234
2594.409028	0.083467	0.137010	1114.614014
2594.409935	0.083441	0.137010	1190.295166
2594.410857	0.083489	0.137010	1267.271851
2594.411745	0.083445	0.137010	1341.370850
2594.412689	0.083463	0.137010	1420.160034
2594.413585	0.083459	0.137010	1494.939697
2594.414504	0.083474	0.137010	1571.652466
2594.415401	0.083525	0.137010	1646.574707
2595.419360	0.880320	0.149840	401.425812
2595.420260	0.585289	0.149840	928.186157
2595.421187	0.090703	0.149840	1012.267944
2595.422106	0.083496	0.149840	1089.000854
2595.423009	0.083416	0.149840	1164.325073
2595.423909	0.083474	0.149840	1239.451782
2595.424837	0.083555	0.149840	1316.990479
2595.425740	0.083551	0.149840	1392.437012
2595.426645	0.083474	0.149840	1467.981079
2595.427537	0.083452	0.149840	1542.420410
2595.428468	0.083547	0.149840	1620.203003
2595.429370	0.083529	0.149840	1695.546265
2596.448475	0.870743	0.134073	384.868591
2596.449399	0.587860	0.134073	928.051331
2596.450295	0.090498	0.134073	1009.137573
2596.451230	0.083529	0.134073	1087.237183
2596.452139	0.083551	0.134073	1163.185059
2596.453039	0.083544	0.134073	1238.374390
2596.453926	0.083514	0.134073	1312.451660
2596.454865	0.083595	0.134073	1390.947388
2596.455768	0.083547	0.134073	1466.390625
2596.456666	0.083514	0.134073	1541.386597
2596.457550	0.083536	0.134073	1615.232788
2596.458491	0.083522	0.134073	1693.826782
2597.461996	0.884004	0.149957	416.365845
2597.462901	0.564811	0.149957	927.519653
2597.463826	0.089462	0.149957	1010.271729
2597.464760	0.083434	0.149957	1088.198975
2597.465682	0.083580	0.149957	1165.260010
2597.466575	0.083478	0.149957	1239.805664
2597.467526	0.083525	0.149957	1319.238281
2597.468467	0.083441	0.149957	1397.756470
2597.469367	0.083522	0.149957	1472.926025
2597.470280	0.083507	0.149957	1549.167969
2597.471223	0.083463	0.149957	1627.873657
2597.472142	0.083492	0.149957	1704.603149
2598.491851	0.861497	0.133123	379.920013
2598.492748	0.600359	0.133123	918.441895
2598.493711	0.089326	0.133123	1004.463013
2598.494643	0.083423	0.133123	1082.213135
2598.495536	0.083511	0.133123	1156.788208
2598.496463	0.083514	0.133123	1234.206055
2598.497385	0.083573	0.133123	1311.260376
2598.498305	0.083500	0.133123	1388.080200
2598.499200	0.083452	0.133123	1462.769897
2598.500130	0.083511	0.133123	1540.434937
2598.501060	0.083514	0.133123	1618.103271
2598.501963	0.083547	0.133123	1693.546509
2599.504852	0.859428	0.148579	380.726379
2599.505747	0.603318	0.148579	920.695923
2599.506699	0.089542	0.148579	1005.940125
2599.507618	0.083427	0.148579	1082.609131
2599.508515	0.083562	0.148579	1157.564209
2599.509434	0.083514	0.148579	1234.313965
2599.510367	0.083503	0.148579	1312.222656
2599.511295	0.083481	0.148579	1389.693481
2599.512182	0.083481	0.148579	1463.741577
2599.513136	0.083485	0.148579	1543.386353
2599.514067	0.083474	0.148579	1621.100708
2599.514961	0.083496	0.148579	1695.746216
2600.534984	0.861848	0.136764	377.489502
2600.535964	0.519170	0.136764	886.276001
2600.536890	0.087506	0.136764	967.306641
2600.537791	0.083470	0.136764	1042.513550
2600.538723	0.083474	0.136764	1120.311401
2600.539659	0.083463	0.136764	1198.432861
2600.540578	0.083459	0.136764	1275.132080
2600.541463	0.083562	0.136764	1349.084473
2600.542439	0.083503	0.136764	1430.583862
2600.543343	0.083511	0.136764	1506.077637
2600.544257	0.083540	0.136764	1582.433228
2600.545151	0.083514	0.136764	1657.095093
2601.546455	0.870172	0.150380	390.707275
2601.547353	0.598392	0.150380	928.063538
2601.548294	0.090590	0.150380	1013.308350
2601.549202	0.083342	0.150380	1088.983154
2601.550133	0.083496	0.150380	1166.718018
2601.551023	0.083478	0.150380	1241.013184
2601.551973	0.083456	0.150380	1320.296143
2601.552876	0.083511	0.150380	1395.706299
2601.553797	0.083511	0.150380	1472.619629
2601.554688	0.083467	0.150380	1546.988525
2601.555640	0.083518	0.150380	1626.497681
2601.556545	0.083481	0.150380	1702.048340
2602.578442	0.922258	0.134911	459.284637
2602.579359	0.513636	0.134911	930.289307
2602.580271	0.087861	0.134911	1010.418823
2602.581169	0.083478	0.134911	1085.381836
2602.582120	0.083522	0.134911	1164.811035
2602.583017	0.083441	0.134911	1239.657715
2602.583905	0.083522	0.134911	1313.824951
2602.584828	0.083514	0.134911	1390.908691
2602.585749	0.083500	0.134911	1467.812012
2602.586670	0.083485	0.134911	1544.701782
2602.587557	0.083533	0.134911	1618.795288
2602.588495	0.083525	0.134911	1697.142090
2603.588306	0.868176	0.151137	383.733917
2603.589226	0.581400	0.151137	918.621948
2603.590119	0.090487	0.151137	999.426880
2603.591076	0.083511	0.151137	1079.346680
2603.591979	0.083467	0.151137	1154.717163
2603.592873	0.083525	0.151137	1229.388916
2603.593761	0.083496	0.151137	1303.533447
2603.594687	0.083632	0.151137	1380.976318
2603.595581	0.083529	0.151137	1455.651245
2603.596505	0.083536	0.151137	1532.838867
2603.597397	0.083496	0.151137	1607.317383
2603.598345	0.083503	0.151137	1686.478638
2604.622796	0.862255	0.131475	378.529785
2604.623737	0.579236	0.131475	923.590698
2604.624645	0.089531	0.131475	1004.885071
2604.625539	0.083511	0.131475	1079.543701
2604.626425	0.083511	0.131475	1153.534180
2604.627382	0.083683	0.131475	1233.618652
2604.628278	0.083632	0.131475	1308.552612
2604.629185	0.083558	0.131475	1384.340088
2604.630075	0.083595	0.131475	1458.739624
2604.631020	0.083654	0.131475	1537.792236
2604.631925	0.083485	0.131475	1613.346313
2604.632820	0.083595	0.131475	1688.163818
2605.629651	0.865107	0.150086	385.837921
2605.630601	0.533463	0.150086	892.627930
2605.631517	0.088568	0.150086	973.756348
2605.632423	0.083500	0.150086	1049.407104
2605.633310	0.083573	0.150086	1123.536377
2605.634250	0.083610	0.150086	1202.129395
2605.635164	0.083522	0.150086	1278.468262
2605.636060	0.083551	0.150086	1353.329956
2605.636991	0.083584	0.150086	1431.146606
2605.637892	0.083566	0.150086	1506.439331
2605.638792	0.083518	0.150086	1581.605591
2605.639680	0.083558	0.150086	1655.805420
2606.667227	0.883616	0.131693	399.394318
2606.668168	0.552297	0.131693	919.106079
2606.669055	0.089498	0.131693	998.491089
2606.669995	0.083485	0.131693	1076.967041
2606.670919	0.083536	0.131693	1154.154663
2606.671821	0.083551	0.131693	1229.517700
2606.672735	0.083555	0.131693	1305.886719
2606.673671	0.083511	0.131693	1384.052734
2606.674578	0.083544	0.131693	1459.826904
2606.675465	0.083628	0.131693	1534.004883
2606.676409	0.083573	0.131693	1612.897827
2606.677345	0.083525	0.131693	1691.077637
2607.670733	0.859464	0.151842	375.585815
2607.671666	0.592778	0.151842	928.648010
2607.672599	0.089253	0.151842	1011.921021
2607.673521	0.083507	0.151842	1088.914551
2607.674410	0.083558	0.151842	1163.197876
2607.675339	0.083555	0.151842	1240.820190
2607.676280	0.083522	0.151842	1319.414185
2607.677202	0.083573	0.151842	1396.468506
2607.678096	0.083551	0.151842	1471.163086
2607.679047	0.083529	0.151842	1550.599243
2607.679987	0.083485	0.151842	1629.075195
2607.680886	0.083500	0.151842	1704.141479
2608.711392	0.877489	0.130670	398.380005
2608.712300	0.586417	0.130670	930.846802
2608.713192	0.090652	0.130670	1011.708252
2608.714136	0.083470	0.130670	1090.504395
2608.715052	0.083503	0.130670	1166.993530
2608.715958	0.083522	0.130670	1242.664185
2608.716849	0.083514	0.130670	1317.075562
2608.717775	0.083514	0.130670	1394.409912
2608.718687	0.083518	0.130670	1470.578369
2608.719602	0.083533	0.130670	1547.010742
2608.720491	0.083602	0.130670	1621.333130
2608.721441	0.083511	0.130670	1700.668335
2609.711827	0.863405	0.152874	380.761414
2609.712727	0.600352	0.152874	921.077820
2609.713686	0.088843	0.152874	1006.278015
2609.714597	0.083448	0.152874	1082.299561
2609.715492	0.083540	0.152874	1157.067871
2609.716413	0.083540	0.152874	1234.008301
2609.717323	0.083577	0.152874	1310.063110
2609.718228	0.083558	0.152874	1385.683472
2609.719131	0.083610	0.152874	1461.182983
2609.720019	0.083558	0.152874	1535.382812
2609.720965	0.083555	0.152874	1614.425537
2609.721866	0.083544	0.152874	1689.698364
2610.755783	0.858999	0.131656	376.241577
2610.756744	0.536763	0.131656	892.070557
2610.757652	0.088843	0.131656	972.739807
2610.758555	0.083470	0.131656	1048.113647
2610.759439	0.083533	0.131656	1121.956543
2610.760380	0.083599	0.131656	1200.622803
2610.761288	0.083540	0.131656	1276.477173
2610.762181	0.083551	0.131656	1351.088257
2610.763117	0.083481	0.131656	1429.226929
2610.764017	0.083525	0.131656	1504.399780
2610.764916	0.083459	0.131656	1579.429810
2610.765808	0.083507	0.131656	1653.918091
2611.753447	0.890618	0.153639	414.137207
2611.754345	0.573453	0.153639	929.098328
2611.755287	0.088953	0.153639	1012.891724
2611.756216	0.083412	0.153639	1090.381348
2611.757133	0.083525	0.153639	1166.974121
2611.758028	0.083438	0.153639	1241.650635
2611.758970	0.083503	0.153639	1320.310791
2611.759908	0.083481	0.153639	1398.616333
2611.760807	0.083492	0.153639	1473.676025
2611.761717	0.083485	0.153639	1549.647461
2611.762646	0.083485	0.153639	1627.205078
2611.763556	0.083514	0.153639	1703.203125
2612.800201	0.863895	0.130202	377.522217
2612.801196	0.506389	0.130202	881.379395
2612.802100	0.088066	0.130202	960.991455
2612.803023	0.083416	0.130202	1037.984009
2612.803912	0.083456	0.130202	1112.176270
2612.804847	0.083518	0.130202	1190.265625
2612.805768	0.083500	0.130202	1267.168945
2612.806667	0.083500	0.130202	1342.235229
2612.807601	0.083566	0.130202	1420.285522
2612.808504	0.083503	0.130202	1495.689087
2612.809423	0.083489	0.130202	1572.415283
2612.810314	0.083481	0.130202	1646.797241
2613.794275	0.880126	0.154666	402.217438
2613.795182	0.583066	0.154666	931.058716
2613.796067	0.090747	0.154666	1011.369873
2613.797015	0.083584	0.154666	1090.607544
2613.797921	0.083474	0.154666	1166.235107
2613.798812	0.083514	0.154666	1240.646484
2613.799722	0.083591	0.154666	1316.714600
2613.800667	0.083558	0.154666	1395.677246
2613.801571	0.083536	0.154666	1471.194092
2613.802462	0.083492	0.154666	1545.585815
2613.803400	0.083569	0.154666	1623.973877
2613.804312	0.083558	0.154666	1700.179077
2614.843864	0.863994	0.129622	385.341370
2614.844759	0.600136	0.129622	922.462646
2614.845703	0.089736	0.129622	1007.173706
2614.846633	0.083496	0.129622	1084.825073
2614.847534	0.083555	0.129622	1160.107788
2614.848452	0.083547	0.129622	1236.804321
2614.849388	0.083544	0.129622	1315.001221
2614.850302	0.083507	0.129622	1391.326660
2614.851196	0.083555	0.129622	1466.024536
2614.852123	0.083474	0.129622	1543.405029
2614.853060	0.083518	0.129622	1621.661499
2614.853999	0.083485	0.129622	1700.053955
2615.835631	0.897019	0.152765	423.392975
2615.836543	0.553542	0.152765	928.223755
2615.837429	0.089806	0.152765	1007.791809
2615.838373	0.083445	0.152765	1086.563721
2615.839311	0.083566	0.152765	1164.948364
2615.840203	0.083558	0.152765	1239.482422
2615.841135	0.083580	0.152765	1317.379272
2615.842053	0.083470	0.152765	1394.005127
2615.842971	0.083569	0.152765	1470.721802
2615.843865	0.083573	0.152765	1545.436035
2615.844814	0.083551	0.152765	1624.725952
2615.845756	0.083577	0.152765	1703.455200
2616.888037	0.886472	0.126621	406.004242
2616.888936	0.585450	0.126621	932.324219
2616.889843	0.090985	0.126621	1014.847717
2616.890772	0.083434	0.126621	1092.357788
2616.891668	0.083518	0.126621	1167.189941
2616.892556	0.083518	0.126621	1241.354004
2616.893489	0.083547	0.126621	1319.303711
2616.894402	0.083525	0.126621	1395.562378
2616.895327	0.083551	0.126621	1472.847046
2616.896223	0.083503	0.126621	1547.666138
2616.897173	0.083577	0.126621	1627.063965
2616.898075	0.083569	0.126621	1702.443481
2617.878220	0.854652	0.151963	370.919006
2617.879186	0.554850	0.151963	906.903931
2617.880091	0.088978	0.151963	987.429260
2617.880986	0.083496	0.151963	1062.158203
2617.881877	0.083621	0.151963	1136.664185
2617.882818	0.083650	0.151963	1215.378784
2617.883729	0.083584	0.151963	1291.523804
2617.884626	0.083533	0.151963	1366.452637
2617.885537	0.083610	0.151963	1442.620972
2617.886462	0.083628	0.151963	1519.976807
2617.887368	0.083577	0.151963	1595.697266
2617.888257	0.083643	0.151963	1670.055542
2618.930895	0.864507	0.129630	383.841034
2618.931875	0.541567	0.129630	914.577026
2618.932798	0.087847	0.129630	995.659546
2618.933692	0.083481	0.129630	1070.291992
2618.934594	0.083536	0.129630	1145.641846
2618.935538	0.083547	0.129630	1224.510498
2618.936453	0.083445	0.129630	1300.862549
2618.937347	0.083547	0.129630	1375.553833
2618.938270	0.083555	0.129630	1452.674805
2618.939198	0.083577	0.129630	1530.233887
2618.940117	0.083555	0.129630	1607.020630
2618.941008	0.083525	0.129630	1681.441772
2619.920612	0.889197	0.149236	405.473724
2619.921523	0.570092	0.149236	924.827148
2619.922413	0.090278	0.149236	1005.174866
2619.923325	0.083522	0.149236	1081.346680
2619.924280	0.083599	0.149236	1161.183350
2619.925204	0.083577	0.149236	1238.408203
2619.926090	0.083613	0.149236	1312.489624
2619.927045	0.083566	0.149236	1392.294800
2619.927949	0.083591	0.149236	1467.861328
2619.928878	0.083672	0.149236	1545.592529
2619.929765	0.083529	0.149236	1619.682861
2619.930704	0.083591	0.149236	1698.175049
2620.973794	0.880609	0.129227	398.035309
2620.974701	0.580349	0.129227	924.411987
2620.975590	0.090703	0.129227	1005.047058
2620.976547	0.083562	0.129227	1085.015869
2620.977447	0.083448	0.129227	1160.119507
2620.978357	0.083536	0.129227	1236.137573
2620.979255	0.083507	0.129227	1311.126953
2620.980208	0.083496	0.129227	1390.698730
2620.981111	0.083434	0.129227	1466.039429
2620.982004	0.083555	0.129227	1540.653809
2620.982935	0.083606	0.129227	1618.490967
2620.983839	0.083566	0.129227	1694.034302
2621.963216	0.868649	0.152648	383.942688
2621.964123	0.600157	0.152648	928.285522
2621.965007	0.091604	0.152648	1009.263428
2621.965956	0.083562	0.152648	1088.563721
2621.966872	0.083485	0.152648	1165.036133
2621.967765	0.083544	0.152648	1239.640625
2621.968693	0.083646	0.152648	1317.264282
2621.969600	0.083639	0.152648	1393.124756
2621.970503	0.083569	0.152648	1468.587891
2621.971395	0.083573	0.152648	1543.135010
2621.972328	0.083591	0.152648	1621.125732
2621.973233	0.083540	0.152648	1696.729492
2623.016668	0.876910	0.128482	398.994232
2623.017568	0.588186	0.128482	928.361694
2623.018519	0.090634	0.128482	1014.554199
2623.019424	0.083555	0.128482	1090.171143
2623.020312	0.083551	0.128482	1164.364502
2623.021201	0.083599	0.128482	1238.683716
2623.022145	0.083734	0.128482	1317.728760
2623.023053	0.083621	0.128482	1393.656250
2623.023956	0.083540	0.128482	1469.092896
2623.024849	0.083599	0.128482	1543.746460
2623.025793	0.083646	0.128482	1622.708496
2623.026703	0.083547	0.128482	1698.736572
2624.006603	0.861123	0.151061	378.894135
2624.007592	0.539044	0.151061	912.008789
2624.008508	0.087682	0.151061	992.325378
2624.009406	0.083485	0.151061	1067.295044
2624.010329	0.083536	0.151061	1144.399170
2624.011266	0.083540	0.151061	1222.676147
2624.012184	0.083536	0.151061	1299.362549
2624.013078	0.083562	0.151061	1374.067017
2624.014027	0.083507	0.151061	1453.315186
2624.014952	0.083463	0.151061	1530.518555
2624.015866	0.083522	0.151061	1606.857422
2624.016757	0.083500	0.151061	1681.255737
2625.059017	0.859885	0.128873	377.489624
2625.060001	0.507576	0.128873	876.944092
2625.060912	0.087883	0.128873	957.005798
2625.061836	0.083478	0.128873	1034.139282
2625.062727	0.083459	0.128873	1108.501709
2625.063685	0.083474	0.128873	1188.469971
2625.064605	0.083492	0.128873	1265.282959
2625.065495	0.083522	0.128873	1339.617310
2625.066445	0.083511	0.128873	1418.952515
2625.067356	0.083448	0.128873	1494.974121
2625.068276	0.083470	0.128873	1571.766968
2625.069162	0.083459	0.128873	1645.712036
2626.049999	0.861515	0.150537	381.651093
2626.050896	0.610858	0.150537	929.590820
2626.051857	0.089337	0.150537	1015.443848
2626.052762	0.083481	0.150537	1090.994507
2626.053661	0.083599	0.150537	1166.149658
2626.054549	0.083529	0.150537	1240.323486
2626.055481	0.083602	0.150537	1318.240845
2626.056387	0.083485	0.150537	1393.878418
2626.057288	0.083474	0.150537	1469.088623
2626.058227	0.083533	0.150537	1547.525879
2626.059131	0.083595	0.150537	1623.095703
2626.060030	0.083496	0.150537	1698.158691
2627.100373	0.869476	0.127173	386.047485
2627.101298	0.584626	0.127173	926.826965
2627.102225	0.089374	0.127173	1009.676453
2627.103127	0.083448	0.127173	1084.947021
2627.104028	0.083525	0.127173	1160.203369
2627.104960	0.083657	0.127173	1238.171875
2627.105867	0.083599	0.127173	1313.995850
2627.106771	0.083481	0.127173	1389.463135
2627.107661	0.083588	0.127173	1463.856201
2627.108606	0.083588	0.127173	1542.846558
2627.109513	0.083551	0.127173	1618.627319
2627.110405	0.083514	0.127173	1693.122192
2628.093931	0.879917	0.152153	413.560974
2628.094871	0.523433	0.152153	905.587646
2628.095761	0.088784	0.152153	984.605591
2628.096683	0.083518	0.152153	1061.609253
2628.097625	0.083555	0.152153	1140.317749
2628.098540	0.083584	0.152153	1216.797119
2628.099435	0.083602	0.152153	1291.621216
2628.100369	0.083617	0.152153	1369.719482
2628.101298	0.083588	0.152153	1447.372437
2628.102201	0.083643	0.152153	1522.901733
2628.103111	0.083643	0.152153	1599.016479
2628.104046	0.083595	0.152153	1677.177734
2629.142535	0.889600	0.129211	444.799805
2629.143454	0.499614	0.129211	903.945312
2629.144386	0.087396	0.129211	985.398621
2629.145270	0.083405	0.129211	1059.128174
2629.146224	0.083511	0.129211	1138.797363
2629.147129	0.083569	0.129211	1214.427612
2629.148049	0.083467	0.129211	1291.217041
2629.148935	0.083481	0.129211	1365.181641
2629.149879	0.083452	0.129211	1443.960449
2629.150797	0.083555	0.129211	1520.663696
2629.151695	0.083452	0.129211	1595.603760
2629.152636	0.083529	0.129211	1674.204590
2630.138387	0.905988	0.153280	462.053650
2630.139307	0.501808	0.153280	923.716919
2630.140197	0.088231	0.153280	1002.242676
2630.141087	0.083405	0.153280	1076.472656
2630.142018	0.083496	0.153280	1154.207520
2630.142914	0.083459	0.153280	1228.987183
2630.143827	0.083536	0.153280	1305.255859
2630.144714	0.083610	0.153280	1379.417603
2630.145657	0.083547	0.153280	1458.202759
2630.146554	0.083470	0.153280	1533.075806
2630.147444	0.083511	0.153280	1607.400391
2630.148382	0.083558	0.153280	1685.778076
2631.184076	0.874768	0.127721	385.772736
2631.185055	0.521378	0.127721	896.202026
2631.185970	0.088326	0.127721	977.020691
2631.186859	0.083500	0.127721	1051.251953
2631.187796	0.083610	0.127721	1129.594116
2631.188705	0.083602	0.127721	1205.588623
2631.189604	0.083547	0.127721	1280.697754
2631.190495	0.083566	0.127721	1355.154785
2631.191438	0.083661	0.127721	1434.046997
2631.192335	0.083573	0.127721	1509.011963
2631.193236	0.083529	0.127721	1584.271606
2631.194125	0.083555	0.127721	1658.551758
2632.182223	0.867707	0.151871	383.526703
2632.183123	0.586772	0.151871	911.621948
2632.184101	0.088129	0.151871	997.811768
2632.185049	0.083416	0.151871	1076.889648
2632.185947	0.083522	0.151871	1151.892212
2632.186863	0.083405	0.151871	1228.290771
2632.187794	0.083544	0.151871	1306.069946
2632.188724	0.083470	0.151871	1383.697510
2632.189622	0.083463	0.151871	1458.647461
2632.190543	0.083478	0.151871	1535.530518
2632.191482	0.083485	0.151871	1613.923096
2632.192401	0.083529	0.151871	1690.686279
2633.225414	0.862277	0.130130	375.090332
2633.226407	0.513669	0.130130	885.164062
2633.227346	0.087396	0.130130	967.229126
2633.228267	0.083434	0.130130	1044.071655
2633.229155	0.083463	0.130130	1118.186890
2633.230096	0.083459	0.130130	1196.722290
2633.231035	0.083533	0.130130	1275.159546
2633.231932	0.083547	0.130130	1350.101562
2633.232846	0.083470	0.130130	1426.393555
2633.233781	0.083529	0.130130	1504.493164
2633.234696	0.083544	0.130130	1580.935669
2633.235591	0.083496	0.130130	1655.664673
2634.226883	0.854487	0.150771	370.847473
2634.227779	0.614359	0.150771	921.313232
2634.228743	0.088854	0.150771	1006.968262
2634.229648	0.083511	0.150771	1082.545532
2634.230541	0.083544	0.150771	1157.150024
2634.231451	0.083555	0.150771	1233.184814
2634.232388	0.083529	0.150771	1311.451538
2634.233282	0.083540	0.150771	1386.136353
2634.234197	0.083533	0.150771	1462.568848
2634.235082	0.083551	0.150771	1536.511475
2634.236015	0.083551	0.150771	1614.464600
2634.236934	0.083522	0.150771	1691.221069
2635.266250	0.856468	0.130879	375.133209
2635.267144	0.615245	0.130879	925.162598
2635.268114	0.089011	0.130879	1011.503479
2635.269028	0.083481	0.130879	1087.805542
2635.269929	0.083544	0.130879	1163.078369
2635.270813	0.083558	0.130879	1236.943970
2635.271753	0.083646	0.130879	1315.571411
2635.272658	0.083416	0.130879	1391.062500
2635.273546	0.083503	0.130879	1465.213501
2635.274464	0.083566	0.130879	1541.926758
2635.275377	0.083584	0.130879	1618.238892
2635.276281	0.083595	0.130879	1693.808716
2636.271328	0.881532	0.150086	397.570923
2636.272247	0.573842	0.150086	924.931335
2636.273136	0.090341	0.150086	1005.244080
2636.274069	0.083514	0.150086	1083.163086
2636.274982	0.083503	0.150086	1159.401733
2636.275886	0.083577	0.150086	1234.955078
2636.276779	0.083525	0.150086	1309.543213
2636.277722	0.083599	0.150086	1388.376709
2636.278626	0.083566	0.150086	1463.920044
2636.279524	0.083569	0.150086	1538.965332
2636.280442	0.083573	0.150086	1615.685303
2636.281359	0.083617	0.150086	1692.362061
2637.308110	0.860537	0.126875	376.915253
2637.309005	0.613590	0.126875	926.078369
2637.309964	0.089531	0.126875	1011.938843
2637.310895	0.083430	0.126875	1089.612305
2637.311826	0.083511	0.126875	1167.360840
2637.312727	0.083503	0.126875	1242.597412
2637.313663	0.083441	0.126875	1320.698364
2637.314586	0.083525	0.126875	1397.792236
2637.315482	0.083511	0.126875	1472.617920
2637.316408	0.083474	0.126875	1549.914917
2637.317351	0.083544	0.126875	1628.696655
2637.318275	0.083507	0.126875	1705.857178
2638.315487	0.870205	0.146908	399.424103
2638.316449	0.505986	0.146908	886.182983
2638.317370	0.087770	0.146908	967.018921
2638.318261	0.083533	0.146908	1041.446533
2638.319183	0.083566	0.146908	1118.494141
2638.320116	0.083544	0.146908	1196.440430
2638.321030	0.083588	0.146908	1272.839600
2638.321915	0.083584	0.146908	1346.811401
2638.322850	0.083507	0.146908	1424.890503
2638.323790	0.083547	0.146908	1503.425049
2638.324697	0.083577	0.146908	1579.229126
2638.325609	0.083577	0.146908	1655.451050
2639.349502	0.885282	0.129288	425.820618
2639.350405	0.552301	0.129288	924.548462
2639.351294	0.089832	0.129288	1004.408691
2639.352235	0.083412	0.129288	1082.899292
2639.353173	0.083441	0.129288	1161.167114
2639.354073	0.083518	0.129288	1236.333374
2639.355004	0.083507	0.129288	1314.078491
2639.355934	0.083478	0.129288	1391.712891
2639.356849	0.083438	0.129288	1468.058228
2639.357738	0.083500	0.129288	1542.289551
2639.358678	0.083467	0.129288	1620.748291
2639.359619	0.083463	0.129288	1699.287109
2640.358877	0.872157	0.145586	393.342804
2640.359780	0.588750	0.145586	924.984009
2640.360670	0.090886	0.145586	1005.872742
2640.361608	0.083441	0.145586	1084.140503
2640.362519	0.083511	0.145586	1160.218750
2640.363445	0.083547	0.145586	1237.583618
2640.364333	0.083551	0.145586	1311.776978
2640.365289	0.083555	0.145586	1391.655273
2640.366209	0.083536	0.145586	1468.508789
2640.367100	0.083555	0.145586	1542.956055
2640.368010	0.083489	0.145586	1618.930786
2640.368942	0.083500	0.145586	1696.752563
2641.391578	0.875336	0.127918	393.901062
2641.392476	0.595800	0.127918	928.929077
2641.393361	0.091487	0.127918	1009.894897
2641.394312	0.083602	0.127918	1089.400635
2641.395226	0.083569	0.127918	1165.782959
2641.396114	0.083635	0.127918	1240.051025
2641.397040	0.083621	0.127918	1317.483643
2641.397948	0.083683	0.127918	1393.467651
2641.398850	0.083584	0.127918	1468.860352
2641.399738	0.083624	0.127918	1543.118652
2641.400691	0.083602	0.127918	1622.791626
2641.401605	0.083551	0.127918	1699.157227
2642.402244	0.855590	0.144684	371.325897
2642.403194	0.588186	0.144684	930.102661
2642.404115	0.089008	0.144684	1012.078613
2642.405029	0.083507	0.144684	1088.404053
2642.405921	0.083529	0.144684	1162.911987
2642.406852	0.083558	0.144684	1240.704834
2642.407748	0.083529	0.144684	1315.546875
2642.408654	0.083470	0.144684	1391.171143
2642.409545	0.083489	0.144684	1465.559692
2642.410493	0.083562	0.144684	1544.776489
2642.411410	0.083456	0.144684	1621.305420
2642.412309	0.083569	0.144684	1696.434204
2643.433470	0.908134	0.131036	432.271576
2643.434380	0.551587	0.131036	934.215698
2643.435263	0.089729	0.131036	1013.446411
2643.436182	0.083372	0.131036	1090.064941
2643.437124	0.083536	0.131036	1168.756226
2643.438035	0.083518	0.131036	1244.841187
2643.438928	0.083500	0.131036	1319.406494
2643.439884	0.083547	0.131036	1399.277832
2643.440819	0.083507	0.131036	1477.356934
2643.441719	0.083584	0.131036	1552.582520
2643.442636	0.083507	0.131036	1629.158569
2643.443573	0.083474	0.131036	1707.373779
2644.446172	0.873838	0.147310	389.731689
2644.447077	0.594086	0.147310	927.379272
2644.447964	0.091212	0.147310	1008.284424
2644.448934	0.083474	0.147310	1089.254272
2644.449862	0.083456	0.147310	1166.701294
2644.450756	0.083507	0.147310	1241.356689
2644.451685	0.083507	0.147310	1318.934814
2644.452620	0.083514	0.147310	1397.020752
2644.453546	0.083558	0.147310	1474.395752
2644.454445	0.083569	0.147310	1549.524536
2644.455390	0.083555	0.147310	1628.483765
2644.456327	0.083584	0.147310	1706.802002
2645.475297	0.867751	0.128631	389.620422
2645.476201	0.593936	0.128631	926.538147
2645.477086	0.091044	0.128631	1007.111816
2645.478033	0.083430	0.128631	1086.120239
2645.478944	0.083478	0.128631	1162.168457
2645.479835	0.083632	0.128631	1236.684204
2645.480745	0.083427	0.128631	1312.602295
2645.481677	0.083522	0.128631	1390.444580
2645.482596	0.083485	0.128631	1467.167358
2645.483486	0.083562	0.128631	1541.537598
2645.484439	0.083566	0.128631	1621.175659
2645.485352	0.083529	0.128631	1697.437744
2646.489284	0.854824	0.145659	370.993713
2646.490199	0.600267	0.145659	920.238342
2646.491149	0.088843	0.145659	1004.638977
2646.492059	0.083467	0.145659	1080.593750
2646.492952	0.083492	0.145659	1155.152466
2646.493890	0.083540	0.145659	1233.513062
2646.494805	0.083514	0.145659	1309.928711
2646.495722	0.083544	0.145659	1386.538330
2646.496611	0.083580	0.145659	1460.841187
2646.497544	0.083577	0.145659	1538.818237
2646.498450	0.083566	0.145659	1614.528687
2646.499343	0.083577	0.145659	1689.162598
2647.518414	0.864917	0.129372	382.293304
2647.519373	0.574739	0.129372	933.467773
2647.520278	0.088989	0.129372	1014.003052
2647.521175	0.083463	0.129372	1088.869507
2647.522061	0.083522	0.129372	1162.869751
2647.522995	0.083606	0.129372	1240.957764
2647.523901	0.083628	0.129372	1316.724609
2647.524805	0.083588	0.129372	1392.287842
2647.525694	0.083558	0.129372	1466.571167
2647.526634	0.083679	0.129372	1545.229614
2647.527548	0.083562	0.129372	1621.605347
2647.528444	0.083606	0.129372	1696.516235
2648.531950	0.885344	0.144579	419.653168
2648.532904	0.508623	0.144579	904.879578
2648.533819	0.087678	0.144579	985.105164
2648.534707	0.083408	0.144579	1059.171631
2648.535661	0.083503	0.144579	1138.833862
2648.536593	0.083485	0.144579	1216.641968
2648.537505	0.083525	0.144579	1292.817139
2648.538393	0.083459	0.144579	1366.929199
2648.539339	0.083536	0.144579	1445.954590
2648.540247	0.083514	0.144579	1521.785645
2648.541146	0.083518	0.144579	1596.868408
2648.542039	0.083503	0.144579	1671.437012
2649.561857	0.909847	0.132809	436.726776
2649.562789	0.508213	0.132809	910.381165
2649.563710	0.087744	0.132809	991.193542
2649.564604	0.083511	0.132809	1065.852173
2649.565560	0.083423	0.132809	1145.604370
2649.566499	0.083463	0.132809	1223.976196
2649.567399	0.083467	0.132809	1299.096313
2649.568316	0.083496	0.132809	1375.662231
2649.569261	0.083448	0.132809	1454.520996
2649.570181	0.083470	0.132809	1531.313843
2649.571073	0.083511	0.132809	1605.805420
2649.572021	0.083456	0.132809	1684.921509
2650.574070	0.902399	0.143987	428.639343
2650.574994	0.529215	0.143987	917.634033
2650.575917	0.088173	0.143987	999.017334
2650.576807	0.083558	0.143987	1073.384277
2650.577765	0.083573	0.143987	1153.447266
2650.578690	0.083496	0.143987	1230.681152
2650.579585	0.083551	0.143987	1305.459351
2650.580533	0.083507	0.143987	1384.624023
2650.581450	0.083500	0.143987	1461.193359
2650.582368	0.083533	0.143987	1537.876343
2650.583255	0.083536	0.143987	1611.973145
2650.584188	0.083522	0.143987	1689.898926
2651.604943	0.862808	0.131354	383.949402
2651.605837	0.587186	0.131354	908.893921
2651.606793	0.088722	0.131354	993.712097
2651.607704	0.083368	0.131354	1069.660278
2651.608597	0.083481	0.131354	1144.209229
2651.609531	0.083518	0.131354	1222.215088
2651.610446	0.083474	0.131354	1298.593872
2651.611345	0.083507	0.131354	1373.666748
2651.612232	0.083540	0.131354	1447.766724
2651.613178	0.083558	0.131354	1526.812988
2651.614088	0.083503	0.131354	1602.801147
2651.614985	0.083533	0.131354	1677.729980
2652.617179	0.878617	0.147230	397.134857
2652.618082	0.587538	0.147230	927.681519
2652.619024	0.090176	0.147230	1012.627075
2652.619929	0.083544	0.147230	1088.234131
2652.620832	0.083536	0.147230	1163.667480
2652.621719	0.083544	0.147230	1237.770752
2652.622668	0.083617	0.147230	1317.123291
2652.623571	0.083628	0.147230	1392.639282
2652.624471	0.083555	0.147230	1467.838501
2652.625378	0.083624	0.147230	1543.685669
2652.626304	0.083595	0.147230	1621.094604
2652.627217	0.083525	0.147230	1697.353271
2653.647868	0.886223	0.128539	430.704437
2653.648791	0.519379	0.128539	910.090942
2653.649717	0.087865	0.128539	991.453918
2653.650614	0.083485	0.128539	1066.340088
2653.651527	0.083485	0.128539	1142.562012
2653.652462	0.083496	0.128539	1220.630859
2653.653381	0.083470	0.128539	1297.340210
2653.654270	0.083529	0.128539	1371.597534
2653.655221	0.083478	0.128539	1450.984863
2653.656161	0.083496	0.128539	1529.471191
2653.657059	0.083485	0.128539	1604.440796
2653.657981	0.083456	0.128539	1681.387085
2654.658296	0.892361	0.142267	423.871399
2654.659200	0.560076	0.142267	930.179810
2654.660087	0.089828	0.142267	1009.857117
2654.661039	0.083430	0.142267	1089.282593
2654.661976	0.083467	0.142267	1167.490967
2654.662876	0.083544	0.142267	1242.680298
2654.663800	0.083529	0.142267	1319.861084
2654.664745	0.083474	0.142267	1398.744141
2654.665666	0.083522	0.142267	1475.667603
2654.666556	0.083555	0.142267	1550.031250
2654.667499	0.083529	0.142267	1628.799194
2654.668432	0.083485	0.142267	1706.690796
2655.692483	0.855820	0.127125	370.570190
2655.693449	0.543915	0.127125	895.991882
2655.694366	0.088553	0.127125	977.195435
2655.695256	0.083474	0.127125	1051.487427
2655.696193	0.083540	0.127125	1129.764404
2655.697105	0.083544	0.127125	1205.956299
2655.698026	0.083529	0.127125	1282.886597
2655.698912	0.083617	0.127125	1356.971191
2655.699867	0.083566	0.127125	1436.776367
2655.700763	0.083522	0.127125	1511.611816
2655.701676	0.083540	0.127125	1587.883911
2655.702571	0.083514	0.127125	1662.629272
2656.699864	0.869506	0.145876	390.408020
2656.700762	0.601937	0.145876	930.947632
2656.701653	0.091516	0.145876	1012.488464
2656.702607	0.083478	0.145876	1092.126221
2656.703511	0.083540	0.145876	1167.646484
2656.704408	0.083511	0.145876	1242.555664
2656.705298	0.083522	0.145876	1316.890015
2656.706245	0.083551	0.145876	1396.012817
2656.707136	0.083405	0.145876	1470.326294
2656.708029	0.083474	0.145876	1544.868652
2656.708973	0.083602	0.145876	1623.789185
2656.709885	0.083544	0.145876	1699.981079
2657.736663	0.874512	0.125445	397.028320
2657.737559	0.593474	0.125445	928.781128
2657.738497	0.090289	0.125445	1013.472473
2657.739407	0.083481	0.125445	1089.440552
2657.740312	0.083525	0.125445	1165.031006
2657.741201	0.083547	0.125445	1239.304565
2657.742155	0.083588	0.125445	1319.047119
2657.743055	0.083551	0.125445	1394.243042
2657.743958	0.083599	0.125445	1469.732666
2657.744866	0.083588	0.125445	1545.630249
2657.745797	0.083591	0.125445	1623.453735
2657.746700	0.083507	0.125445	1698.860596
2658.741195	0.867305	0.146029	381.614075
2658.742177	0.518478	0.146029	890.759277
2658.743083	0.088352	0.146029	970.806213
2658.743974	0.083383	0.146029	1045.100098
2658.744901	0.083474	0.146029	1122.480591
2658.745814	0.083551	0.146029	1198.762695
2658.746722	0.083434	0.146029	1274.520630
2658.747624	0.083448	0.146029	1349.791138
2658.748549	0.083613	0.146029	1427.133423
2658.749452	0.083529	0.146029	1502.560181
2658.750349	0.083507	0.146029	1577.466064
2658.751235	0.083518	0.146029	1651.463135
2659.780841	0.873065	0.127491	401.609985
2659.781758	0.571326	0.127491	925.515686
2659.782647	0.090026	0.127491	1005.548462
2659.783570	0.083474	0.127491	1082.595093
2659.784494	0.083540	0.127491	1159.786133
2659.785426	0.083492	0.127491	1237.601074
2659.786322	0.083474	0.127491	1312.393921
2659.787240	0.083536	0.127491	1389.080322
2659.788182	0.083525	0.127491	1467.761230
2659.789094	0.083489	0.127491	1543.902954
2659.789983	0.083427	0.127491	1618.069092
2659.790932	0.083481	0.127491	1697.292969
2660.781515	0.856069	0.148132	373.246216
2660.782410	0.607526	0.148132	916.981689
2660.783378	0.089000	0.148132	1003.133911
2660.784303	0.083474	0.148132	1080.347412
2660.785198	0.083500	0.148132	1155.079712
2660.786134	0.083514	0.148132	1233.249146
2660.787043	0.083544	0.148132	1309.190308
2660.787953	0.083558	0.148132	1385.228394
2660.788844	0.083522	0.148132	1459.646240
2660.789789	0.083500	0.148132	1538.553467
2660.790693	0.083555	0.148132	1614.086914
2660.791620	0.083496	0.148132	1691.487793
2661.825229	0.873783	0.124236	384.464478
2661.826218	0.501467	0.124236	880.415649
2661.827119	0.087997	0.124236	959.700806
2661.828010	0.083540	0.124236	1034.135010
2661.828935	0.083588	0.124236	1111.453613
2661.829855	0.083481	0.124236	1188.256592
2661.830752	0.083536	0.124236	1263.188721
2661.831678	0.083533	0.124236	1340.540039
2661.832596	0.083606	0.124236	1417.290283
2661.833493	0.083459	0.124236	1492.153442
2661.834407	0.083599	0.124236	1568.562622
2661.835307	0.083588	0.124236	1643.791504
2662.823629	0.860336	0.147266	374.246002
2662.824581	0.576489	0.147266	923.063843
2662.825491	0.088997	0.147266	1004.050720
2662.826399	0.083500	0.147266	1079.868530
2662.827290	0.083558	0.147266	1154.318970
2662.828248	0.083613	0.147266	1234.420532
2662.829142	0.083624	0.147266	1309.180664
2662.830048	0.083613	0.147266	1384.934326
2662.830936	0.083551	0.147266	1459.127686
2662.831883	0.083573	0.147266	1538.271362
2662.832784	0.083580	0.147266	1613.577271
2662.833678	0.083536	0.147266	1688.258789
2663.869906	0.868879	0.124309	385.782440
2663.870798	0.594269	0.124309	915.870239
2663.871747	0.089407	0.124309	1000.717224
2663.872659	0.083511	0.124309	1076.879028
2663.873553	0.083566	0.124309	1151.586792
2663.874482	0.083665	0.124309	1229.311157
2663.875384	0.083606	0.124309	1304.723755
2663.876286	0.083562	0.124309	1380.096680
2663.877174	0.083577	0.124309	1454.312744
2663.878112	0.083698	0.124309	1532.821045
2663.879017	0.083646	0.124309	1608.520874
2663.879922	0.083591	0.124309	1684.171021
2664.864762	0.883074	0.151399	423.875397
2664.865661	0.550972	0.151399	919.198975
2664.866589	0.089403	0.151399	1002.165039
2664.867523	0.083408	0.151399	1080.068359
2664.868443	0.083463	0.151399	1156.854492
2664.869339	0.083533	0.151399	1231.699829
2664.870287	0.083474	0.151399	1310.833252
2664.871221	0.083481	0.151399	1388.804932
2664.872143	0.083514	0.151399	1465.805176
2664.873031	0.083474	0.151399	1539.930176
2664.873975	0.083518	0.151399	1618.771240
2664.874910	0.083430	0.151399	1696.778442
2665.913832	0.872102	0.124607	403.783264
2665.914747	0.566949	0.124607	922.542053
2665.915633	0.090231	0.124607	1002.486450
2665.916595	0.083452	0.124607	1082.767456
2665.917534	0.083481	0.124607	1161.156494
2665.918435	0.083478	0.124607	1236.369995
2665.919351	0.083478	0.124607	1312.835693
2665.920295	0.083558	0.124607	1391.714722
2665.921220	0.083485	0.124607	1468.938477
2665.922118	0.083525	0.124607	1543.944336
2665.923062	0.083441	0.124607	1622.712769
2665.923991	0.083445	0.124607	1700.233032
2666.906588	0.871512	0.145385	393.052124
2666.907487	0.594163	0.145385	927.204346
2666.908426	0.090593	0.145385	1012.271423
2666.909333	0.083405	0.145385	1087.919312
2666.910252	0.083529	0.145385	1164.682495
2666.911151	0.083562	0.145385	1239.804687
2666.912103	0.083522	0.145385	1319.317383
2666.913008	0.083503	0.145385	1394.887939
2666.913933	0.083595	0.145385	1472.213257
2666.914836	0.083518	0.145385	1547.630127
2666.915788	0.083540	0.145385	1627.160278
2666.916684	0.083452	0.145385	1701.933350
2667.956931	0.854788	0.121892	370.123016
2667.957875	0.579001	0.121892	916.700439
2667.958794	0.089015	0.121892	998.505127
2667.959696	0.083361	0.121892	1073.696411
2667.960585	0.083470	0.121892	1147.901611
2667.961521	0.083507	0.121892	1226.064209
2667.962439	0.083470	0.121892	1302.690063
2667.963341	0.083467	0.121892	1377.977051
2667.964225	0.083459	0.121892	1451.755249
2667.965179	0.083438	0.121892	1531.354614
2667.966085	0.083492	0.121892	1606.998779
2667.967004	0.083547	0.121892	1683.778809
2668.948174	0.868213	0.148044	385.486511
2668.949080	0.601934	0.148044	930.838379
2668.949971	0.091355	0.148044	1012.235657
2668.950932	0.083529	0.148044	1092.507080
2668.951835	0.083525	0.148044	1167.930542
2668.952734	0.083529	0.148044	1243.023193
2668.953623	0.083518	0.148044	1317.270752
2668.954554	0.083635	0.148044	1395.135132
2668.955463	0.083533	0.148044	1471.066406
2668.956358	0.083566	0.148044	1545.857666
2668.957284	0.083555	0.148044	1623.229248
2668.958196	0.083599	0.148044	1699.471191
2670.001115	0.870758	0.124212	392.711884
2670.002020	0.583147	0.124212	920.459961
2670.002949	0.090366	0.124212	1004.410156
2670.003888	0.083438	0.124212	1082.757935
2670.004801	0.083514	0.124212	1159.006592
2670.005693	0.083562	0.124212	1233.543945
2670.006647	0.083467	0.124212	1313.171265
2670.007573	0.083474	0.124212	1390.468262
2670.008479	0.083496	0.124212	1466.115723
2670.009372	0.083452	0.124212	1540.638428
2670.010310	0.083481	0.124212	1618.943970
2670.011239	0.083416	0.124212	1696.437012
2670.990824	0.886868	0.146440	405.298553
2670.991720	0.586655	0.146440	930.941650
2670.992658	0.089436	0.146440	1014.832642
2670.993593	0.083401	0.146440	1092.812500
2670.994500	0.083540	0.146440	1168.583374
2670.995386	0.083555	0.146440	1242.612793
2670.996320	0.083599	0.146440	1320.693848
2670.997263	0.083562	0.146440	1399.492798
2670.998165	0.083540	0.146440	1474.845947
2670.999081	0.083474	0.146440	1551.308228
2671.000022	0.083507	0.146440	1629.888428
2671.000940	0.083628	0.146440	1706.658813
2672.043723	0.862482	0.123954	378.629486
2672.044620	0.596294	0.123954	913.505127
2672.045586	0.088817	0.123954	999.302490
2672.046507	0.083459	0.123954	1076.168701
2672.047399	0.083547	0.123954	1150.692993
2672.048350	0.083562	0.123954	1230.160522
2672.049262	0.083533	0.123954	1306.342407
2672.050184	0.083500	0.123954	1383.329224
2672.051069	0.083533	0.123954	1457.255615
2672.052006	0.083478	0.123954	1535.474243
2672.052920	0.083540	0.123954	1611.829834
2672.053835	0.083602	0.123954	1688.325928
2673.033157	0.857556	0.145808	373.894501
2673.034053	0.598239	0.145808	909.916260
2673.035048	0.088015	0.145808	997.491333
2673.035955	0.083485	0.145808	1073.212280
2673.036850	0.083569	0.145808	1148.006836
2673.037776	0.083566	0.145808	1225.388672
2673.038692	0.083492	0.145808	1301.867798
2673.039617	0.083496	0.145808	1379.101685
2673.040508	0.083518	0.145808	1453.516235
2673.041451	0.083569	0.145808	1532.322144
2673.042349	0.083474	0.145808	1607.281860
2673.043260	0.083525	0.145808	1683.373535
2674.086900	0.899418	0.124893	433.519318
2674.087830	0.516866	0.124893	914.205078
2674.088733	0.088370	0.124893	994.003540
2674.089620	0.083467	0.124893	1068.038574
2674.090575	0.083646	0.124893	1147.920776
2674.091478	0.083536	0.124893	1223.354126
2674.092370	0.083544	0.124893	1297.875122
2674.093289	0.083551	0.124893	1374.658569
2674.094200	0.083676	0.124893	1450.886963
2674.095099	0.083547	0.124893	1525.996094
2674.095997	0.083511	0.124893	1600.988770
2674.096927	0.083489	0.124893	1678.633301
2675.076084	0.882469	0.148306	413.878174
2675.077027	0.518621	0.148306	902.937378
2675.077929	0.088213	0.148306	982.505432
2675.078847	0.083408	0.148306	1059.074219
2675.079779	0.083485	0.148306	1136.882324
2675.080695	0.083522	0.148306	1213.388184
2675.081581	0.083529	0.148306	1287.394897
2675.082520	0.083448	0.148306	1365.753052
2675.083446	0.083533	0.148306	1443.104370
2675.084350	0.083529	0.148306	1518.614624
2675.085265	0.083540	0.148306	1595.053711
2675.086201	0.083496	0.148306	1673.206055
2676.128729	0.887179	0.123576	402.779236
2676.129672	0.530017	0.123576	902.585327
2676.130601	0.088143	0.123576	984.470459
2676.131490	0.083408	0.123576	1058.620361
2676.132433	0.083562	0.123576	1137.419312
2676.133364	0.083566	0.123576	1215.218994
2676.134262	0.083562	0.123576	1290.257690
2676.135191	0.083507	0.123576	1367.835815
2676.136125	0.083507	0.123576	1445.831421
2676.137041	0.083602	0.123576	1522.411133
2676.137926	0.083533	0.123576	1596.337646
2676.138869	0.083635	0.123576	1675.205688
2677.119434	0.863536	0.147355	379.955994
2677.120330	0.596971	0.147355	914.842407
2677.121295	0.089242	0.147355	1000.960876
2677.122187	0.083511	0.147355	1075.452515
2677.123077	0.083566	0.147355	1149.825928
2677.124006	0.083588	0.147355	1227.478882
2677.124922	0.083511	0.147355	1303.974731
2677.125847	0.083503	0.147355	1381.215332
2677.126743	0.083558	0.147355	1456.083618
2677.127701	0.083588	0.147355	1536.160645
2677.128613	0.083547	0.147355	1612.355835
2677.129537	0.083595	0.147355	1689.597534
2678.171111	0.882528	0.122500	403.315338
2678.172009	0.585641	0.122500	929.220825
2678.172895	0.090948	0.122500	1009.801208
2678.173844	0.083522	0.122500	1089.063354
2678.174758	0.083551	0.122500	1165.428955
2678.175666	0.083533	0.122500	1241.276611
2678.176556	0.083492	0.122500	1315.584839
2678.177504	0.083551	0.122500	1394.791260
2678.178413	0.083551	0.122500	1470.739136
2678.179305	0.083518	0.122500	1545.237305
2678.180245	0.083547	0.122500	1623.771851
2678.181144	0.083547	0.122500	1698.880981
2679.162887	0.885813	0.144720	439.363220
2679.163810	0.513406	0.144720	913.236694
2679.164710	0.088418	0.144720	992.812866
2679.165598	0.083474	0.144720	1066.937866
2679.166554	0.083606	0.144720	1146.865112
2679.167453	0.083558	0.144720	1221.984131
2679.168355	0.083511	0.144720	1297.310791
2679.169240	0.083544	0.144720	1371.246948
2679.170172	0.083599	0.144720	1449.160889
2679.171080	0.083573	0.144720	1525.045166
2679.171977	0.083602	0.144720	1600.036377
2679.172915	0.083555	0.144720	1678.410645
2680.212989	0.914985	0.124675	438.277985
2680.213929	0.514189	0.124675	921.616028
2680.214815	0.088539	0.124675	1000.061401
2680.215733	0.083353	0.124675	1076.579712
2680.216680	0.083507	0.124675	1155.660889
2680.217598	0.083522	0.124675	1232.333862
2680.218494	0.083507	0.124675	1307.156250
2680.219437	0.083518	0.124675	1385.913818
2680.220371	0.083452	0.124675	1463.858154
2680.221266	0.083544	0.124675	1538.629761
2680.222183	0.083492	0.124675	1615.192383
2680.223120	0.083525	0.124675	1693.455688
2681.206738	0.867301	0.147141	383.347046
2681.207638	0.595408	0.147141	919.213989
2681.208598	0.089161	0.147141	1004.808899
2681.209517	0.083500	0.147141	1081.545166
2681.210412	0.083573	0.147141	1156.343018
2681.211335	0.083522	0.147141	1233.433594
2681.212275	0.083492	0.147141	1311.916504
2681.213196	0.083478	0.147141	1388.799561
2681.214086	0.083555	0.147141	1463.163208
2681.215016	0.083470	0.147141	1540.790771
2681.215938	0.083555	0.147141	1617.828247
2681.216845	0.083507	0.147141	1693.569214
2682.254568	0.871498	0.122686	396.531464
2682.255472	0.581755	0.122686	922.438232
2682.256364	0.090549	0.122686	1003.208252
2682.257302	0.083434	0.122686	1081.469238
2682.258214	0.083489	0.122686	1157.610962
2682.259127	0.083474	0.122686	1233.822876
2682.260027	0.083555	0.122686	1309.022095
2682.260980	0.083507	0.122686	1388.604370
2682.261886	0.083617	0.122686	1464.361328
2682.262781	0.083569	0.122686	1539.155884
2682.263727	0.083533	0.122686	1618.177856
2682.264623	0.083514	0.122686	1693.006714
2683.250644	0.870509	0.144958	389.988037
2683.251546	0.597473	0.144958	928.908813
2683.252434	0.091366	0.144958	1010.041809
2683.253404	0.083518	0.144958	1091.054321
2683.254307	0.083540	0.144958	1166.490967
2683.255199	0.083584	0.144958	1241.047852
2683.256105	0.083569	0.144958	1316.761719
2683.257039	0.083485	0.144958	1394.736816
2683.257936	0.083459	0.144958	1469.599976
2683.258826	0.083485	0.144958	1543.901733
2683.259759	0.083617	0.144958	1621.916382
2683.260674	0.083544	0.144958	1698.358887
2684.296928	0.880126	0.123511	396.056580
2684.297832	0.585795	0.123511	925.614990
2684.298722	0.090850	0.123511	1006.471130
2684.299668	0.083522	0.123511	1085.482666
2684.300569	0.083492	0.123511	1160.709351
2684.301466	0.083522	0.123511	1235.628296
2684.302412	0.083522	0.123511	1314.639893
2684.303324	0.083621	0.123511	1390.901855
2684.304227	0.083544	0.123511	1466.341797
2684.305114	0.083551	0.123511	1540.451538
2684.306060	0.083602	0.123511	1619.539307
2684.306960	0.083621	0.123511	1694.797852
2685.295090	0.882015	0.144716	413.665222
2685.296023	0.543776	0.144716	921.007874
2685.296917	0.089041	0.144716	1000.610107
2685.297846	0.083419	0.144716	1078.106567
2685.298771	0.083489	0.144716	1155.333740
2685.299692	0.083448	0.144716	1232.189819
2685.300595	0.083518	0.144716	1307.606689
2685.301529	0.083452	0.144716	1385.551025
2685.302456	0.083467	0.144716	1462.924805
2685.303359	0.083573	0.144716	1538.391235
2685.304262	0.083540	0.144716	1613.827881
2685.305192	0.083470	0.144716	1691.455444
2686.338009	0.870403	0.124603	391.681274
2686.338911	0.594932	0.124603	928.309570
2686.339797	0.091278	0.124603	1009.181946
2686.340772	0.083456	0.124603	1090.551392
2686.341695	0.083522	0.124603	1167.641968
2686.342586	0.083507	0.124603	1242.046753
2686.343531	0.083518	0.124603	1320.971313
2686.344454	0.083540	0.124603	1398.078735
2686.345369	0.083602	0.124603	1474.574829
2686.346270	0.083507	0.124603	1549.814697
2686.347209	0.083533	0.124603	1628.251953
2686.348125	0.083558	0.124603	1704.791382
2687.339509	0.882722	0.143621	429.002960
2687.340460	0.486497	0.143621	891.661194
2687.341359	0.087810	0.143621	970.602417
2687.342250	0.083555	0.143621	1045.049683
2687.343189	0.083646	0.143621	1123.593506
2687.344102	0.083562	0.143621	1199.885620
2687.345021	0.083540	0.143621	1276.658936
2687.345909	0.083566	0.143621	1350.865234
2687.346859	0.083577	0.143621	1430.263062
2687.347747	0.083573	0.143621	1504.475830
2687.348641	0.083544	0.143621	1579.163940
2687.349575	0.083599	0.143621	1657.245117
2688.379621	0.883198	0.122520	401.855194
2688.380519	0.589171	0.122520	930.930908
2688.381405	0.091165	0.122520	1011.702698
2688.382368	0.083595	0.122520	1092.204590
2688.383260	0.083591	0.122520	1166.768066
2688.384163	0.083536	0.122520	1242.201416
2688.385051	0.083573	0.122520	1316.414185
2688.386000	0.083551	0.122520	1395.704102
2688.386908	0.083463	0.122520	1471.488647
2688.387806	0.083518	0.122520	1546.487915
2688.388737	0.083584	0.122520	1624.304565
2688.389644	0.083522	0.122520	1700.058716
2689.383635	0.868722	0.143363	385.712524
2689.384608	0.534031	0.143363	905.324402
2689.385533	0.087572	0.143363	986.328491
2689.386431	0.083525	0.143363	1061.334229
2689.387349	0.083540	0.143363	1138.023926
2689.388291	0.083573	0.143363	1216.749634
2689.389216	0.083525	0.143363	1294.010620
2689.390126	0.083547	0.143363	1370.038696
2689.391035	0.083551	0.143363	1445.986572
2689.391973	0.083514	0.143363	1524.323120
2689.392912	0.083544	0.143363	1602.770630
2689.393803	0.083558	0.143363	1677.221069
2690.420970	0.903047	0.124998	425.335083
2690.421909	0.518423	0.124998	912.134155
2690.422802	0.088634	0.124998	991.284363
2690.423722	0.083463	0.124998	1068.070435
2690.424665	0.083522	0.124998	1146.831421
2690.425584	0.083478	0.124998	1223.547485
2690.426473	0.083503	0.124998	1297.781982
2690.427413	0.083503	0.124998	1376.275146
2690.428353	0.083503	0.124998	1454.768311
2690.429244	0.083525	0.124998	1529.189453
2690.430163	0.083544	0.124998	1605.966064
2690.431100	0.083434	0.124998	1684.143555
2691.428293	0.859039	0.142154	372.823059
2691.429252	0.569359	0.142154	918.838440
2691.430160	0.088759	0.142154	999.431213
2691.431073	0.083522	0.142154	1075.686523
2691.431976	0.083617	0.142154	1151.192627
2691.432930	0.083617	0.142154	1230.963135
2691.433843	0.083558	0.142154	1307.251953
2691.434761	0.083525	0.142154	1383.928223
2691.435652	0.083606	0.142154	1458.421143
2691.436604	0.083624	0.142154	1538.031494
2691.437496	0.083595	0.142154	1612.598145
2691.438385	0.083518	0.142154	1686.845703
2692.462302	0.875786	0.124623	394.979553
2692.463231	0.565602	0.124623	920.423645
2692.464123	0.089839	0.124623	1000.559937
2692.465056	0.083448	0.124623	1078.417358
2692.465963	0.083595	0.124623	1154.238037
2692.466860	0.083584	0.124623	1229.212891
2692.467753	0.083547	0.124623	1303.820679
2692.468712	0.083668	0.124623	1384.058472
2692.469621	0.083536	0.124623	1459.993042
2692.470523	0.083610	0.124623	1535.408936
2692.471438	0.083628	0.124623	1611.928467
2692.472349	0.083654	0.124623	1688.136841
2693.471729	0.881415	0.143174	409.857880
2693.472643	0.562650	0.143174	924.120117
2693.473532	0.089945	0.143174	1004.081299
2693.474474	0.083489	0.143174	1082.727783
2693.475410	0.083540	0.143174	1160.921265
2693.476310	0.083518	0.143174	1236.087524
2693.477237	0.083474	0.143174	1313.468018
2693.478169	0.083551	0.143174	1391.337524
2693.479081	0.083485	0.143174	1467.475952
2693.479976	0.083547	0.143174	1542.250854
2693.480932	0.083489	0.143174	1622.066162
2693.481851	0.083533	0.143174	1698.832764
2694.504657	0.861401	0.125376	377.293793
2694.505554	0.603475	0.125376	918.611206
2694.506511	0.088857	0.125376	1003.647766
2694.507429	0.083361	0.125376	1080.172852
2694.508341	0.083573	0.125376	1156.391479
2694.509236	0.083496	0.125376	1231.120483
2694.510189	0.083489	0.125376	1310.685303
2694.511100	0.083492	0.125376	1386.746948
2694.511991	0.083555	0.125376	1461.194214
2694.512922	0.083569	0.125376	1538.997314
2694.513833	0.083485	0.125376	1615.052246
2694.514753	0.083588	0.125376	1691.952881
2695.514835	0.873571	0.142605	391.359619
2695.515797	0.523868	0.142605	895.321045
2695.516694	0.088806	0.142605	974.980164
2695.517584	0.083452	0.142605	1049.252563
2695.518519	0.083621	0.142605	1127.437866
2695.519421	0.083558	0.142605	1202.807495
2695.520327	0.083533	0.142605	1278.488159
2695.521218	0.083492	0.142605	1352.879883
2695.522156	0.083573	0.142605	1431.271362
2695.523052	0.083533	0.142605	1506.116699
2695.523969	0.083580	0.142605	1582.759888
2695.524861	0.083544	0.142605	1657.280884
2696.547019	0.859622	0.125807	375.654633
2696.547991	0.547544	0.125807	907.867310
2696.548886	0.088616	0.125807	987.178406
2696.549786	0.083459	0.125807	1062.291992
2696.550678	0.083492	0.125807	1136.767212
2696.551615	0.083569	0.125807	1215.071655
2696.552520	0.083551	0.125807	1290.685303
2696.553422	0.083518	0.125807	1366.018555
2696.554336	0.083610	0.125807	1442.437744
2696.555261	0.083617	0.125807	1519.783447
2696.556172	0.083617	0.125807	1595.958496
2696.557063	0.083584	0.125807	1670.431885
2697.558222	0.867136	0.140998	385.008484
2697.559114	0.605815	0.140998	925.395813
2697.560065	0.089645	0.140998	1010.648010
2697.561002	0.083511	0.140998	1088.897583
2697.561902	0.083547	0.140998	1164.090210
2697.562820	0.083478	0.140998	1240.722778
2697.563758	0.083507	0.140998	1319.052368
2697.564676	0.083580	0.140998	1395.779053
2697.565570	0.083588	0.140998	1470.506348
2697.566513	0.083540	0.140998	1549.284668
2697.567446	0.083467	0.140998	1627.159180
2697.568359	0.083536	0.140998	1703.427856
2698.588910	0.890903	0.126246	412.488220
2698.589822	0.554059	0.126246	917.789917
2698.590735	0.089062	0.126246	999.104004
2698.591639	0.083438	0.126246	1074.531494
2698.592601	0.083540	0.126246	1154.896973
2698.593507	0.083478	0.126246	1230.527832
2698.594399	0.083573	0.126246	1305.074951
2698.595330	0.083558	0.126246	1382.867798
2698.596254	0.083536	0.126246	1460.055420
2698.597169	0.083566	0.126246	1536.518066
2698.598062	0.083573	0.126246	1611.148804
2698.599008	0.083514	0.126246	1690.153442
2699.600887	0.885198	0.141433	426.665314
2699.601815	0.515409	0.141433	904.964844
2699.602712	0.088513	0.141433	984.361145
2699.603603	0.083452	0.141433	1058.717041
2699.604546	0.083591	0.141433	1137.543701
2699.605452	0.083518	0.141433	1213.211060
2699.606355	0.083569	0.141433	1288.674194
2699.607240	0.083503	0.141433	1362.574707
2699.608181	0.083536	0.141433	1441.182495
2699.609090	0.083478	0.141433	1517.063843
2699.609984	0.083503	0.141433	1591.715942
2699.610916	0.083525	0.141433	1669.561646
2700.632558	0.878511	0.126480	416.414093
2700.633513	0.504489	0.126480	898.200623
2700.634442	0.087290	0.126480	979.293091
2700.635339	0.083445	0.126480	1054.143066
2700.636289	0.083481	0.126480	1133.450439
2700.637219	0.083518	0.126480	1211.122192
2700.638134	0.083489	0.126480	1287.514404
2700.639020	0.083456	0.126480	1361.456299
2700.639965	0.083467	0.126480	1440.332397
2700.640914	0.083525	0.126480	1519.598022
2700.641806	0.083500	0.126480	1594.079834
2700.642729	0.083544	0.126480	1671.190674
2701.644230	0.852726	0.141474	368.377533
2701.645191	0.558992	0.141474	905.568604
2701.646093	0.089271	0.141474	986.091248
2701.647007	0.083470	0.141474	1062.383301
2701.647904	0.083599	0.141474	1137.371216
2701.648854	0.083544	0.141474	1216.737671
2701.649760	0.083529	0.141474	1292.415039
2701.650682	0.083544	0.141474	1369.442383
2701.651570	0.083503	0.141474	1443.593384
2701.652508	0.083584	0.141474	1521.995117
2701.653425	0.083492	0.141474	1598.557617
2701.654311	0.083544	0.141474	1672.577393
2702.675925	0.864902	0.123419	384.881561
2702.676827	0.601597	0.123419	927.521729
2702.677786	0.090685	0.123419	1014.488464
2702.678694	0.083489	0.123419	1090.296265
2702.679589	0.083569	0.123419	1165.090820
2702.680479	0.083580	0.123419	1239.477295
2702.681418	0.083668	0.123419	1318.041748
2702.682325	0.083566	0.123419	1393.835815
2702.683249	0.083569	0.123419	1471.053833
2702.684149	0.083566	0.123419	1546.262939
2702.685096	0.083657	0.123419	1625.486328
2702.685998	0.083591	0.123419	1700.885742
2703.686353	0.862925	0.139810	377.098114
2703.687313	0.544384	0.139810	899.706299
2703.688224	0.088894	0.139810	980.688782
2703.689124	0.083533	0.139810	1055.868164
2703.690009	0.083657	0.139810	1129.904785
2703.690942	0.083712	0.139810	1208.008179
2703.691846	0.083584	0.139810	1283.568115
2703.692743	0.083646	0.139810	1358.598755
2703.693657	0.083591	0.139810	1435.001221
2703.694572	0.083709	0.139810	1511.594482
2703.695472	0.083595	0.139810	1586.829956
2703.696367	0.083599	0.139810	1661.650757
2704.718799	0.868722	0.122746	386.581238
2704.719788	0.519305	0.122746	900.174316
2704.720708	0.087642	0.122746	980.804565
2704.721597	0.083467	0.122746	1055.006592
2704.722511	0.083558	0.122746	1131.378906
2704.723455	0.083569	0.122746	1210.268311
2704.724376	0.083577	0.122746	1287.242432
2704.725272	0.083558	0.122746	1362.110718
2704.726194	0.083577	0.122746	1439.168457
2704.727121	0.083507	0.122746	1516.579468
2704.728044	0.083580	0.122746	1593.724121
2704.728931	0.083555	0.122746	1667.837158
2705.727428	0.853521	0.142029	368.720856
2705.728390	0.556549	0.142029	904.121094
2705.729303	0.088561	0.142029	984.977112
2705.730232	0.083511	0.142029	1062.558594
2705.731126	0.083610	0.142029	1137.305542
2705.732082	0.083540	0.142029	1217.169800
2705.733018	0.083558	0.142029	1295.380371
2705.733910	0.083599	0.142029	1369.950317
2705.734823	0.083621	0.142029	1446.295898
2705.735762	0.083595	0.142029	1524.791626
2705.736674	0.083584	0.142029	1601.020264
2705.737568	0.083628	0.142029	1675.783691
2706.762955	0.866499	0.123306	382.992554
2706.763910	0.568931	0.123306	926.321350
2706.764818	0.088693	0.123306	1006.854248
2706.765713	0.083481	0.123306	1081.570190
2706.766601	0.083540	0.123306	1155.753784
2706.767555	0.083610	0.123306	1235.517334
2706.768461	0.083536	0.123306	1311.201294
2706.769359	0.083566	0.123306	1386.243286
2706.770248	0.083547	0.123306	1460.516846
2706.771204	0.083595	0.123306	1540.433594
2706.772107	0.083441	0.123306	1615.781006
2706.772998	0.083599	0.123306	1690.267334
2707.768783	0.861544	0.140789	377.356354
2707.769684	0.596173	0.140789	914.508301
2707.770634	0.089114	0.140789	999.166382
2707.771549	0.083507	0.140789	1075.575317
2707.772450	0.083533	0.140789	1150.838257
2707.773376	0.083591	0.140789	1228.243774
2707.774278	0.083657	0.140789	1303.702637
2707.775180	0.083514	0.140789	1379.032593
2707.776069	0.083573	0.140789	1453.328979
2707.777020	0.083621	0.140789	1532.852173
2707.777921	0.083580	0.140789	1608.158081
2707.778820	0.083595	0.140789	1683.309937
2708.806116	0.900626	0.121852	418.791199
2708.807055	0.523791	0.121852	910.631409
2708.807949	0.088751	0.121852	989.974976
2708.808870	0.083507	0.121852	1066.885010
2708.809809	0.083602	0.121852	1145.387573
2708.810749	0.083610	0.121852	1223.980591
2708.811645	0.083544	0.121852	1298.835693
2708.812577	0.083503	0.121852	1376.660889
2708.813514	0.083518	0.121852	1454.917358
2708.814406	0.083577	0.121852	1529.467773
2708.815323	0.083533	0.121852	1606.067261
2708.816249	0.083551	0.121852	1683.435547
2709.810899	0.879108	0.140777	392.961121
2709.811877	0.515764	0.140777	897.378418
2709.812803	0.087722	0.140777	978.609131
2709.813692	0.083467	0.140777	1052.811157
2709.814633	0.083555	0.140777	1131.436157
2709.815541	0.083536	0.140777	1207.287231
2709.816461	0.083569	0.140777	1284.171021
2709.817359	0.083555	0.140777	1359.203125
2709.818298	0.083522	0.140777	1437.630005
2709.819217	0.083525	0.140777	1514.389893
2709.820141	0.083558	0.140777	1591.597778
2709.821031	0.083496	0.140777	1665.909302
2710.850764	0.862288	0.124615	379.406525
2710.851676	0.602260	0.124615	928.667236
2710.852565	0.091304	0.124615	1009.836243
2710.853505	0.083500	0.124615	1088.326050
2710.854421	0.083525	0.124615	1164.835327
2710.855318	0.083584	0.124615	1239.810181
2710.856213	0.083511	0.124615	1314.552246
2710.857148	0.083595	0.124615	1392.713501
2710.858056	0.083547	0.124615	1468.574463
2710.858961	0.083467	0.124615	1544.111938
2710.859848	0.083547	0.124615	1618.218506
2710.860798	0.083558	0.124615	1697.598877
2711.852230	0.855582	0.143028	370.467102
2711.853199	0.547405	0.143028	900.902344
2711.854107	0.088901	0.143028	981.624756
2711.855004	0.083489	0.143028	1056.514160
2711.855892	0.083536	0.143028	1130.694458
2711.856837	0.083569	0.143028	1209.667480
2711.857735	0.083599	0.143028	1284.739014
2711.858633	0.083555	0.143028	1359.771118
2711.859559	0.083672	0.143028	1437.251221
2711.860472	0.083705	0.143028	1513.673706
2711.861380	0.083632	0.143028	1589.611206
2711.862282	0.083701	0.143028	1665.109619
2712.895966	0.875288	0.121779	392.129059
2712.896911	0.547064	0.121779	909.104736
2712.897804	0.089399	0.121779	988.938416
2712.898779	0.083496	0.121779	1070.347168
2712.899717	0.083584	0.121779	1148.748901
2712.900642	0.083577	0.121779	1226.057373
2712.901537	0.083533	0.121779	1300.819092
2712.902485	0.083514	0.121779	1379.990723
2712.903417	0.083544	0.121779	1457.853394
2712.904309	0.083547	0.121779	1532.377686
2712.905224	0.083599	0.121779	1608.870483
2712.906154	0.083470	0.121779	1686.498047
