time (s)	coil I (A)	last det (V)	int current (uC)
3913.443826	0.898521	0.174224	425.000214
3913.444733	0.550646	0.174224	924.435913
3913.445669	0.088810	0.174224	1007.561890
3913.446615	0.083496	0.174224	1086.549194
3913.447537	0.083588	0.174224	1163.616943
3913.448426	0.083577	0.174224	1237.916626
3913.449380	0.083602	0.174224	1317.673218
3913.450316	0.083522	0.174224	1395.849609
3913.451208	0.083555	0.174224	1470.380371
3913.452121	0.083544	0.174224	1546.655762
3913.453050	0.083518	0.174224	1624.244019
3913.453969	0.083547	0.174224	1701.024048
3914.477512	0.858915	0.163541	374.486847
3914.478467	0.560050	0.163541	909.334717
3914.479391	0.088348	0.163541	990.968628
3914.480288	0.083533	0.163541	1065.897461
3914.481207	0.083544	0.163541	1142.674072
3914.482143	0.083503	0.163541	1220.833252
3914.483059	0.083522	0.163541	1297.339111
3914.483948	0.083536	0.163541	1371.602905
3914.484902	0.083485	0.163541	1451.247681
3914.485823	0.083547	0.163541	1528.194824
3914.486733	0.083606	0.163541	1604.276245
3914.487633	0.083580	0.163541	1679.498535
3915.489998	0.864683	0.167331	382.189728
3915.490969	0.516478	0.167331	883.690063
3915.491876	0.088088	0.167331	963.586243
3915.492794	0.083470	0.167331	1040.212158
3915.493681	0.083470	0.167331	1114.250488
3915.494632	0.083489	0.167331	1193.648315
3915.495553	0.083511	0.167331	1270.561768
3915.496444	0.083547	0.167331	1345.002441
3915.497384	0.083566	0.167331	1423.554199
3915.498295	0.083580	0.167331	1499.695923
3915.499213	0.083544	0.167331	1576.389038
3915.500107	0.083503	0.167331	1651.041138
3916.526591	0.914249	0.163323	442.496674
3916.527524	0.507415	0.163323	915.914490
3916.528422	0.088239	0.163323	995.152710
3916.529311	0.083500	0.163323	1069.384033
3916.530259	0.083562	0.163323	1148.600830
3916.531162	0.083496	0.163323	1223.997803
3916.532051	0.083555	0.163323	1298.277954
3916.532990	0.083635	0.163323	1376.811523
3916.533894	0.083547	0.163323	1452.338379
3916.534789	0.083588	0.163323	1527.149292
3916.535675	0.083580	0.163323	1601.201416
3916.536615	0.083632	0.163323	1679.815063
3917.520594	0.869110	0.174244	389.361328
3917.521498	0.593082	0.174244	925.507690
3917.522438	0.090762	0.174244	1010.823730
3917.523347	0.083555	0.174244	1086.774902
3917.524244	0.083580	0.174244	1161.746460
3917.525134	0.083588	0.174244	1236.139404
3917.526079	0.083610	0.174244	1315.150513
3917.526977	0.083544	0.174244	1390.172729
3917.527879	0.083588	0.174244	1465.568848
3917.528768	0.083610	0.174244	1539.897827
3917.529714	0.083628	0.174244	1619.009888
3917.530623	0.083621	0.174244	1695.020996
3918.579691	0.870586	0.156133	403.951874
3918.580599	0.560431	0.156133	912.823120
3918.581520	0.089850	0.156133	995.574829
3918.582450	0.083507	0.156133	1073.236450
3918.583376	0.083544	0.156133	1150.597900
3918.584272	0.083540	0.156133	1225.449829
3918.585194	0.083555	0.156133	1302.487305
3918.586133	0.083544	0.156133	1380.934814
3918.587057	0.083617	0.156133	1458.196899
3918.587943	0.083536	0.156133	1532.210083
3918.588884	0.083639	0.156133	1610.914307
3918.589816	0.083595	0.156133	1688.824829
3919.567870	0.894913	0.175211	434.032990
3919.568811	0.495374	0.175211	900.179504
3919.569710	0.087898	0.175211	979.199768
3919.570630	0.083463	0.175211	1055.985840
3919.571564	0.083514	0.175211	1133.988281
3919.572486	0.083503	0.175211	1210.978394
3919.573384	0.083503	0.175211	1285.964478
3919.574332	0.083580	0.175211	1365.198608
3919.575248	0.083478	0.175211	1441.664307
3919.576167	0.083562	0.175211	1518.457764
3919.577060	0.083580	0.175211	1593.094971
3919.578004	0.083558	0.175211	1671.973999
3920.610538	0.877628	0.164648	402.831329
3920.611434	0.584828	0.164648	926.837158
3920.612327	0.090586	0.164648	1007.730408
3920.613250	0.083500	0.164648	1084.800659
3920.614177	0.083529	0.164648	1162.232056
3920.615107	0.083569	0.164648	1239.951538
3920.616001	0.083525	0.164648	1314.623291
3920.616944	0.083547	0.164648	1393.408447
3920.617856	0.083485	0.164648	1469.546875
3920.618772	0.083610	0.164648	1546.133301
3920.619660	0.083544	0.164648	1620.320068
3920.620621	0.083613	0.164648	1700.672485
3921.620200	0.886443	0.172596	408.650177
3921.621105	0.573087	0.172596	927.294067
3921.621993	0.090399	0.172596	1007.568542
3921.622949	0.083544	0.172596	1087.436279
3921.623840	0.083536	0.172596	1161.867187
3921.624734	0.083591	0.172596	1236.597778
3921.625660	0.083610	0.172596	1314.020264
3921.626586	0.083628	0.172596	1391.459717
3921.627496	0.083456	0.172596	1467.404541
3921.628387	0.083632	0.172596	1541.920288
3921.629329	0.083595	0.172596	1620.666748
3921.630240	0.083547	0.172596	1696.778442
3922.653399	0.870542	0.163722	390.002808
3922.654303	0.593335	0.163722	926.377625
3922.655249	0.090645	0.163722	1012.127319
3922.656154	0.083441	0.163722	1087.641602
3922.657050	0.083514	0.163722	1162.470459
3922.657941	0.083536	0.163722	1236.901367
3922.658880	0.083540	0.163722	1315.345459
3922.659780	0.083566	0.163722	1390.554565
3922.660682	0.083533	0.163722	1465.901123
3922.661570	0.083595	0.163722	1540.133423
3922.662517	0.083650	0.163722	1619.349854
3922.663413	0.083489	0.163722	1694.155762
3923.651574	0.879869	0.169003	416.178223
3923.652485	0.551396	0.169003	918.500427
3923.653373	0.089630	0.169003	998.091980
3923.654322	0.083445	0.169003	1077.281128
3923.655259	0.083427	0.169003	1155.451782
3923.656161	0.083459	0.169003	1230.732178
3923.657082	0.083448	0.169003	1307.588257
3923.658001	0.083503	0.169003	1384.327881
3923.658943	0.083485	0.169003	1462.970825
3923.659833	0.083544	0.169003	1537.324707
3923.660748	0.083529	0.169003	1613.753784
3923.661687	0.083503	0.169003	1692.163452
3924.708803	0.856641	0.161003	371.782043
3924.709774	0.553114	0.161003	908.855774
3924.710683	0.088411	0.161003	989.221069
3924.711605	0.083500	0.161003	1066.207886
3924.712496	0.083536	0.161003	1140.638794
3924.713446	0.083514	0.161003	1219.977539
3924.714342	0.083507	0.161003	1294.799927
3924.715253	0.083536	0.161003	1370.901611
3924.716153	0.083533	0.161003	1446.081055
3924.717099	0.083551	0.161003	1525.120361
3924.718018	0.083566	0.161003	1601.917236
3924.718906	0.083584	0.161003	1676.139771
3925.696220	0.880496	0.177370	393.581543
3925.697131	0.584451	0.177370	926.016113
3925.698022	0.090630	0.177370	1006.767334
3925.698934	0.083459	0.177370	1082.882324
3925.699879	0.083503	0.177370	1161.793091
3925.700775	0.083525	0.177370	1236.631836
3925.701661	0.083551	0.177370	1310.658081
3925.702597	0.083602	0.177370	1388.909790
3925.703502	0.083558	0.177370	1464.530151
3925.704421	0.083481	0.177370	1541.249634
3925.705313	0.083518	0.177370	1615.747803
3925.706269	0.083525	0.177370	1695.598022
3926.740685	0.865895	0.164274	381.859619
3926.741642	0.544156	0.164274	902.617371
3926.742546	0.088854	0.164274	982.941162
3926.743442	0.083536	0.164274	1057.789795
3926.744328	0.083606	0.164274	1131.864624
3926.745268	0.083639	0.164274	1210.485229
3926.746185	0.083584	0.164274	1287.131714
3926.747083	0.083617	0.164274	1362.219727
3926.748007	0.083591	0.164274	1439.458130
3926.748936	0.083606	0.164274	1517.128052
3926.749842	0.083492	0.164274	1592.772217
3926.750742	0.083588	0.164274	1668.001099
3927.750096	0.874603	0.173970	385.700043
3927.751081	0.509323	0.173970	887.382690
3927.752007	0.087594	0.173970	968.494751
3927.752930	0.083492	0.173970	1045.558228
3927.753816	0.083558	0.173970	1119.590942
3927.754757	0.083503	0.173970	1198.167603
3927.755684	0.083544	0.173970	1275.612549
3927.756580	0.083584	0.173970	1350.503784
3927.757497	0.083503	0.173970	1427.076416
3927.758428	0.083522	0.173970	1504.835205
3927.759345	0.083481	0.173970	1581.387695
3927.760238	0.083547	0.173970	1655.995483
3928.783091	0.881631	0.165156	420.537903
3928.784034	0.507213	0.165156	898.839966
3928.784961	0.087565	0.165156	980.012451
3928.785857	0.083408	0.165156	1054.746216
3928.786794	0.083562	0.165156	1133.043823
3928.787727	0.083503	0.165156	1210.952515
3928.788632	0.083558	0.165156	1286.572876
3928.789530	0.083577	0.165156	1361.624756
3928.790467	0.083503	0.165156	1439.867432
3928.791399	0.083529	0.165156	1517.716553
3928.792294	0.083507	0.165156	1592.455444
3928.793223	0.083551	0.165156	1670.074341
3929.782222	0.877387	0.172089	387.804840
3929.783193	0.514980	0.172089	887.850830
3929.784122	0.087686	0.172089	969.310730
3929.785012	0.083566	0.172089	1043.684204
3929.785953	0.083650	0.172089	1122.398804
3929.786865	0.083628	0.172089	1198.667480
3929.787786	0.083661	0.172089	1275.719116
3929.788675	0.083661	0.172089	1350.093628
3929.789625	0.083617	0.172089	1429.529785
3929.790533	0.083580	0.172089	1505.420654
3929.791453	0.083621	0.172089	1582.351562
3929.792350	0.083503	0.172089	1657.254150
3930.837959	0.855194	0.157470	373.719818
3930.838915	0.542461	0.157470	892.312500
3930.839829	0.088740	0.157470	973.421082
3930.840756	0.083566	0.157470	1050.886475
3930.841642	0.083617	0.157470	1124.971069
3930.842587	0.083657	0.157470	1204.027100
3930.843488	0.083610	0.157470	1279.359375
3930.844375	0.083562	0.157470	1353.478882
3930.845316	0.083635	0.157470	1432.179687
3930.846207	0.083632	0.157470	1506.695435
3930.847123	0.083628	0.157470	1583.298584
3930.848020	0.083606	0.157470	1658.293091
3931.822811	0.869242	0.177587	392.897369
3931.823709	0.591449	0.177587	924.018555
3931.824636	0.090864	0.177587	1008.249756
3931.825550	0.083555	0.177587	1084.618774
3931.826445	0.083558	0.177587	1159.403442
3931.827338	0.083478	0.177587	1233.949097
3931.828274	0.083525	0.177587	1312.128906
3931.829185	0.083536	0.177587	1388.230591
3931.830082	0.083518	0.177587	1463.146240
3931.830972	0.083577	0.177587	1537.529419
3931.831923	0.083566	0.177587	1617.000366
3931.832820	0.083481	0.177587	1691.883179
3932.877561	0.887900	0.162940	429.743774
3932.878492	0.521913	0.162940	915.644653
3932.879387	0.088711	0.162940	995.040955
3932.880277	0.083511	0.162940	1069.365479
3932.881212	0.083683	0.162940	1147.609009
3932.882116	0.083610	0.162940	1223.192139
3932.883027	0.083613	0.162940	1299.363892
3932.883917	0.083628	0.162940	1373.792725
3932.884863	0.083657	0.162940	1452.932495
3932.885770	0.083617	0.162940	1528.773071
3932.886666	0.083665	0.162940	1603.736450
3932.887599	0.083646	0.162940	1681.778442
3933.876732	0.910280	0.183175	443.306122
3933.877681	0.489470	0.183175	907.813354
3933.878607	0.087268	0.183175	988.623596
3933.879494	0.083522	0.183175	1062.707397
3933.880432	0.083536	0.183175	1141.064575
3933.881374	0.083511	0.183175	1219.731689
3933.882273	0.083588	0.183175	1294.876953
3933.883192	0.083558	0.183175	1371.667114
3933.884136	0.083496	0.183175	1450.487427
3933.885045	0.083558	0.183175	1526.442017
3933.885935	0.083573	0.183175	1600.822021
3933.886880	0.083492	0.183175	1679.722412
3934.910422	0.867400	0.161974	387.727753
3934.911324	0.593009	0.161974	922.621948
3934.912254	0.090439	0.161974	1006.730652
3934.913195	0.083503	0.161974	1085.307373
3934.914110	0.083624	0.161974	1161.823608
3934.915003	0.083562	0.161974	1236.444458
3934.915937	0.083591	0.161974	1314.518799
3934.916868	0.083606	0.161974	1392.355957
3934.917784	0.083657	0.161974	1468.985962
3934.918678	0.083562	0.161974	1543.690430
3934.919616	0.083547	0.161974	1622.057861
3934.920539	0.083577	0.161974	1699.199097
3935.920860	0.878229	0.170316	396.959412
3935.921846	0.482516	0.170316	872.720032
3935.922757	0.087415	0.170316	952.354675
3935.923680	0.083551	0.170316	1029.472290
3935.924577	0.083573	0.170316	1104.437256
3935.925525	0.083573	0.170316	1183.664429
3935.926419	0.083558	0.170316	1258.365601
3935.927308	0.083529	0.170316	1332.622925
3935.928245	0.083613	0.170316	1410.968628
3935.929145	0.083507	0.170316	1486.125000
3935.930070	0.083489	0.170316	1563.352051
3935.930961	0.083496	0.170316	1637.747070
3936.956614	0.858406	0.168520	375.123322
3936.957599	0.502471	0.168520	870.056946
3936.958506	0.088037	0.168520	949.906616
3936.959408	0.083467	0.168520	1025.193604
3936.960329	0.083613	0.168520	1102.201416
3936.961243	0.083621	0.168520	1178.630615
3936.962154	0.083518	0.168520	1254.715576
3936.963044	0.083547	0.168520	1329.072754
3936.963976	0.083639	0.168520	1407.024170
3936.964884	0.083646	0.168520	1482.974976
3936.965791	0.083573	0.168520	1558.775635
3936.966677	0.083584	0.168520	1632.831055
3937.959927	0.889321	0.173277	427.763519
3937.960858	0.521653	0.173277	913.422302
3937.961784	0.087916	0.173277	994.832764
3937.962673	0.083547	0.173277	1069.106323
3937.963620	0.083555	0.173277	1148.232666
3937.964551	0.083624	0.173277	1226.086914
3937.965446	0.083522	0.173277	1300.838867
3937.966361	0.083547	0.173277	1377.284668
3937.967301	0.083533	0.173277	1455.805420
3937.968240	0.083544	0.173277	1534.252930
3937.969143	0.083591	0.173277	1609.735840
3937.970060	0.083562	0.173277	1686.362183
3939.005641	0.864174	0.167513	376.779663
3939.006625	0.504961	0.167513	873.661255
3939.007551	0.087469	0.167513	954.658020
3939.008446	0.083478	0.167513	1029.370605
3939.009371	0.083485	0.167513	1106.594360
3939.010305	0.083525	0.167513	1184.607056
3939.011226	0.083547	0.167513	1261.554199
3939.012113	0.083525	0.167513	1335.641235
3939.013052	0.083507	0.167513	1414.054443
3939.013985	0.083514	0.167513	1491.973389
3939.014889	0.083503	0.167513	1567.460449
3939.015812	0.083558	0.167513	1644.584839
3939.997649	0.866869	0.178691	386.623505
3939.998637	0.488767	0.178691	869.525391
3939.999561	0.087352	0.178691	950.238892
3940.000481	0.083599	0.178691	1027.149658
3940.001368	0.083474	0.178691	1101.191162
3940.002312	0.083507	0.178691	1180.021851
3940.003239	0.083588	0.178691	1257.507568
3940.004140	0.083533	0.178691	1332.770508
3940.005069	0.083500	0.178691	1410.341797
3940.006001	0.083533	0.178691	1488.194336
3940.006917	0.083540	0.178691	1564.717041
3940.007804	0.083525	0.178691	1638.804077
3941.053899	0.868403	0.157035	382.097473
3941.054873	0.513508	0.157035	882.254578
3941.055778	0.088169	0.157035	962.047485
3941.056668	0.083566	0.157035	1036.420898
3941.057596	0.083698	0.157035	1114.092163
3941.058505	0.083588	0.157035	1190.073364
3941.059424	0.083558	0.157035	1266.863525
3941.060320	0.083599	0.157035	1341.767944
3941.061262	0.083672	0.157035	1420.586914
3941.062162	0.083595	0.157035	1495.822388
3941.063084	0.083577	0.157035	1572.880127
3941.063974	0.083628	0.157035	1647.308960
3942.038485	0.860405	0.174393	383.740753
3942.039379	0.607013	0.174393	926.410278
3942.040318	0.091337	0.174393	1012.175415
3942.041237	0.083470	0.174393	1088.884766
3942.042142	0.083500	0.174393	1164.452026
3942.043032	0.083551	0.174393	1238.812500
3942.043967	0.083580	0.174393	1316.960083
3942.044882	0.083551	0.174393	1393.409302
3942.045789	0.083555	0.174393	1469.193359
3942.046681	0.083522	0.174393	1543.694702
3942.047625	0.083544	0.174393	1622.559937
3942.048521	0.083467	0.174393	1697.346191
3943.098570	0.860079	0.160040	375.854675
3943.099462	0.606976	0.160040	917.277588
3943.100418	0.089293	0.160040	1002.641907
3943.101328	0.083555	0.160040	1078.676636
3943.102221	0.083602	0.160040	1153.333496
3943.103160	0.083617	0.160040	1231.849854
3943.104061	0.083646	0.160040	1307.215088
3943.104949	0.083533	0.160040	1381.392090
3943.105839	0.083599	0.160040	1455.794922
3943.106777	0.083635	0.160040	1534.244751
3943.107684	0.083577	0.160040	1610.048828
3943.108589	0.083613	0.160040	1685.718872
3944.082161	0.891951	0.183155	425.460480
3944.083097	0.515259	0.183155	907.742676
3944.084015	0.088026	0.183155	988.550659
3944.084923	0.083485	0.183155	1064.355103
3944.085866	0.083591	0.183155	1143.181641
3944.086805	0.083558	0.183155	1221.642944
3944.087706	0.083536	0.183155	1296.909180
3944.088622	0.083536	0.183155	1373.428467
3944.089547	0.083558	0.183155	1450.719971
3944.090456	0.083536	0.183155	1526.654541
3944.091344	0.083599	0.183155	1600.890137
3944.092291	0.083518	0.183155	1679.981689
3945.140424	0.853960	0.157438	369.764679
3945.141364	0.565441	0.157438	901.278931
3945.142289	0.088846	0.157438	983.461853
3945.143209	0.083456	0.157438	1060.241211
3945.144099	0.083492	0.157438	1134.549438
3945.145036	0.083533	0.157438	1212.819580
3945.145979	0.083573	0.157438	1291.628906
3945.146870	0.083562	0.157438	1366.082642
3945.147799	0.083555	0.157438	1443.704956
3945.148732	0.083540	0.157438	1521.647827
3945.149648	0.083478	0.157438	1598.113525
3945.150540	0.083540	0.157438	1672.631226
3946.125283	0.870311	0.181318	403.824432
3946.126205	0.565049	0.181318	924.799438
3946.127148	0.089312	0.181318	1009.020203
3946.128052	0.083511	0.181318	1084.513916
3946.128977	0.083540	0.181318	1161.788452
3946.129878	0.083602	0.181318	1237.114136
3946.130815	0.083584	0.181318	1315.432373
3946.131731	0.083573	0.181318	1391.985229
3946.132651	0.083628	0.181318	1468.922974
3946.133542	0.083661	0.181318	1543.464844
3946.134482	0.083591	0.181318	1622.040649
3946.135378	0.083547	0.181318	1696.899048
3947.184598	0.861738	0.157961	379.164825
3947.185504	0.595302	0.157961	918.507935
3947.186433	0.091055	0.157961	1003.097778
3947.187361	0.083478	0.157961	1080.565186
3947.188266	0.083551	0.157961	1156.178833
3947.189156	0.083595	0.157961	1230.578369
3947.190103	0.083643	0.157961	1309.787842
3947.191011	0.083566	0.157961	1385.665527
3947.191907	0.083628	0.157961	1460.596191
3947.192790	0.083657	0.157961	1534.465576
3947.193731	0.083621	0.157961	1613.152588
3947.194639	0.083577	0.157961	1689.040161
3948.168910	0.864122	0.181390	380.213806
3948.169861	0.542985	0.181390	896.592163
3948.170771	0.089081	0.181390	977.655701
3948.171664	0.083566	0.181390	1052.279785
3948.172598	0.083635	0.181390	1130.395142
3948.173507	0.083569	0.181390	1206.359619
3948.174416	0.083569	0.181390	1282.324097
3948.175309	0.083632	0.181390	1357.007080
3948.176252	0.083591	0.181390	1435.833740
3948.177155	0.083547	0.181390	1511.276978
3948.178052	0.083646	0.181390	1586.307617
3948.178945	0.083562	0.181390	1660.928467
3949.228229	0.851938	0.159754	367.185455
3949.229178	0.589420	0.159754	926.545166
3949.230087	0.089202	0.159754	1007.629456
3949.230997	0.083412	0.159754	1083.534302
3949.231887	0.083588	0.159754	1157.927246
3949.232829	0.083595	0.159754	1236.673706
3949.233735	0.083606	0.159754	1312.420654
3949.234628	0.083562	0.159754	1387.041504
3949.235524	0.083562	0.159754	1461.913086
3949.236473	0.083672	0.159754	1541.317749
3949.237378	0.083588	0.159754	1616.964600
3949.238278	0.083577	0.159754	1692.183594
3950.213090	0.877910	0.182627	400.327026
3950.213984	0.590017	0.182627	927.802368
3950.214919	0.089795	0.182627	1011.760620
3950.215843	0.083470	0.182627	1088.887329
3950.216757	0.083613	0.182627	1165.309814
3950.217650	0.083522	0.182627	1239.894775
3950.218603	0.083555	0.182627	1319.522339
3950.219541	0.083584	0.182627	1397.924072
3950.220443	0.083566	0.182627	1473.300293
3950.221359	0.083599	0.182627	1549.876587
3950.222296	0.083573	0.182627	1628.184448
3950.223209	0.083555	0.182627	1704.469849
3951.270089	0.857736	0.160298	373.114960
3951.271018	0.587999	0.160298	919.366333
3951.271954	0.089088	0.160298	1002.752808
3951.272883	0.083481	0.160298	1080.307129
3951.273772	0.083569	0.160298	1154.600220
3951.274716	0.083566	0.160298	1233.486206
3951.275643	0.083522	0.160298	1310.910889
3951.276548	0.083558	0.160298	1386.531250
3951.277441	0.083558	0.160298	1461.148804
3951.278387	0.083511	0.160298	1540.149902
3951.279320	0.083518	0.160298	1618.072266
3951.280218	0.083547	0.160298	1693.097778
3952.257497	0.866693	0.175944	385.678406
3952.258406	0.587754	0.175944	919.946777
3952.259294	0.090718	0.175944	1000.504150
3952.260241	0.083518	0.175944	1079.595703
3952.261164	0.083522	0.175944	1156.686279
3952.262083	0.083536	0.175944	1233.456177
3952.262976	0.083577	0.175944	1308.090088
3952.263926	0.083533	0.175944	1387.446167
3952.264824	0.083489	0.175944	1462.419067
3952.265737	0.083577	0.175944	1538.724609
3952.266637	0.083555	0.175944	1613.923828
3952.267593	0.083580	0.175944	1693.826660
3953.310440	0.887153	0.168794	412.526306
3953.311340	0.569590	0.168794	925.157166
3953.312232	0.090110	0.168794	1005.535156
3953.313183	0.083419	0.168794	1084.866821
3953.314095	0.083511	0.168794	1161.028564
3953.315016	0.083478	0.168794	1237.911621
3953.315909	0.083544	0.168794	1312.516113
3953.316853	0.083540	0.168794	1391.377930
3953.317753	0.083511	0.168794	1466.537598
3953.318644	0.083577	0.168794	1541.004395
3953.319562	0.083628	0.168794	1617.774780
3953.320486	0.083522	0.168794	1694.948853
3954.307783	0.853766	0.175424	370.534393
3954.308740	0.575490	0.175424	921.277832
3954.309644	0.088854	0.175424	1001.601624
3954.310551	0.083547	0.175424	1077.379028
3954.311441	0.083511	0.175424	1151.703613
3954.312372	0.083624	0.175424	1229.557861
3954.313280	0.083591	0.175424	1305.458740
3954.314190	0.083584	0.175424	1381.520142
3954.315077	0.083496	0.175424	1455.581177
3954.316021	0.083672	0.175424	1534.567383
3954.316928	0.083595	0.175424	1610.388062
3954.317817	0.083566	0.175424	1684.677979
3955.344844	0.867382	0.172798	381.647888
3955.345824	0.502046	0.172798	873.652893
3955.346740	0.087854	0.172798	954.127136
3955.347641	0.083518	0.172798	1029.376953
3955.348564	0.083613	0.172798	1106.552002
3955.349463	0.083668	0.172798	1181.769775
3955.350363	0.083569	0.172798	1256.982178
3955.351253	0.083522	0.172798	1331.316528
3955.352178	0.083580	0.172798	1408.628296
3955.353085	0.083573	0.172798	1484.428955
3955.353990	0.083551	0.172798	1560.042603
3955.354878	0.083503	0.172798	1634.193604
3956.355539	0.864686	0.173172	383.920685
3956.356438	0.598671	0.173172	922.125610
3956.357365	0.090886	0.173172	1006.377136
3956.358297	0.083481	0.173172	1084.181885
3956.359213	0.083573	0.173172	1160.734741
3956.360117	0.083591	0.173172	1236.301270
3956.361065	0.083525	0.173172	1315.483398
3956.361983	0.083547	0.173172	1392.179932
3956.362903	0.083551	0.173172	1469.046875
3956.363798	0.083492	0.173172	1543.772583
3956.364746	0.083503	0.173172	1622.933838
3956.365675	0.083566	0.173172	1700.566406
3957.385928	0.859259	0.165938	375.496216
3957.386896	0.535466	0.165938	893.827637
3957.387827	0.087872	0.165938	975.636780
3957.388729	0.083602	0.165938	1051.046021
3957.389649	0.083547	0.165938	1127.909546
3957.390571	0.083536	0.165938	1204.930054
3957.391489	0.083547	0.165938	1281.626587
3957.392378	0.083610	0.165938	1355.955566
3957.393323	0.083536	0.165938	1434.897461
3957.394242	0.083584	0.165938	1511.711182
3957.395156	0.083547	0.165938	1588.073486
3957.396053	0.083514	0.165938	1662.985962
3958.398982	0.917226	0.178494	455.861572
3958.399921	0.494960	0.178494	920.628784
3958.400822	0.087872	0.178494	999.801758
3958.401708	0.083507	0.178494	1073.789062
3958.402642	0.083580	0.178494	1151.853027
3958.403547	0.083566	0.178494	1227.479980
3958.404437	0.083566	0.178494	1301.853394
3958.405372	0.083573	0.178494	1379.994141
3958.406286	0.083573	0.178494	1456.379883
3958.407193	0.083511	0.178494	1532.124146
3958.408085	0.083511	0.178494	1606.615723
3958.409042	0.083599	0.178494	1686.619629
3959.436250	0.871941	0.160374	394.117279
3959.437147	0.591533	0.160374	924.722534
3959.438067	0.090872	0.160374	1008.324402
3959.439008	0.083533	0.160374	1086.928711
3959.439917	0.083525	0.160374	1162.853271
3959.440815	0.083514	0.160374	1237.849243
3959.441739	0.083602	0.160374	1315.097778
3959.442641	0.083525	0.160374	1390.437744
3959.443543	0.083503	0.160374	1465.757812
3959.444431	0.083525	0.160374	1539.928345
3959.445373	0.083500	0.160374	1618.585083
3959.446270	0.083514	0.160374	1693.497559
3960.432593	0.865770	0.188887	383.536224
3960.433544	0.573072	0.188887	928.528198
3960.434475	0.087729	0.188887	1010.204346
3960.435414	0.083503	0.188887	1088.614014
3960.436312	0.083591	0.188887	1163.678955
3960.437234	0.083522	0.188887	1240.686035
3960.438176	0.083533	0.188887	1319.373901
3960.439086	0.083573	0.188887	1395.425293
3960.439978	0.083514	0.188887	1469.920166
3960.440928	0.083511	0.188887	1549.255371
3960.441860	0.083573	0.188887	1627.145386
3960.442757	0.083573	0.188887	1702.110352
3961.487834	0.875489	0.156773	393.970276
3961.488739	0.591145	0.156773	928.956482
3961.489689	0.088843	0.156773	1013.357117
3961.490606	0.083507	0.156773	1089.933105
3961.491527	0.083540	0.156773	1166.873535
3961.492422	0.083569	0.156773	1241.668091
3961.493348	0.083522	0.156773	1319.009155
3961.494276	0.083547	0.156773	1396.541138
3961.495182	0.083522	0.156773	1472.211792
3961.496078	0.083522	0.156773	1547.047241
3961.497006	0.083522	0.156773	1624.555420
3961.497942	0.083551	0.156773	1702.759155
3962.470871	0.863617	0.180460	382.582306
3962.471769	0.597708	0.180460	919.323608
3962.472731	0.089084	0.180460	1005.022888
3962.473626	0.083485	0.180460	1079.742065
3962.474514	0.083606	0.180460	1153.984131
3962.475465	0.083635	0.180460	1233.521240
3962.476364	0.083533	0.180460	1308.617187
3962.477282	0.083595	0.180460	1385.357422
3962.478178	0.083489	0.180460	1460.163330
3962.479139	0.083599	0.180460	1540.501587
3962.480045	0.083577	0.180460	1616.222046
3962.480958	0.083503	0.180460	1692.460693
3963.528665	0.870535	0.168737	385.646851
3963.529601	0.559526	0.168737	909.363525
3963.530501	0.089586	0.168737	989.991089
3963.531393	0.083558	0.168737	1064.525146
3963.532342	0.083643	0.168737	1143.901978
3963.533244	0.083610	0.168737	1219.317871
3963.534133	0.083591	0.168737	1293.630493
3963.535066	0.083599	0.168737	1371.628052
3963.535975	0.083573	0.168737	1447.595947
3963.536875	0.083558	0.168737	1522.798462
3963.537764	0.083533	0.168737	1597.059082
3963.538725	0.083595	0.168737	1677.393799
3964.526042	0.876310	0.172524	396.092041
3964.526940	0.591405	0.172524	927.173767
3964.527890	0.089777	0.172524	1012.461548
3964.528783	0.083481	0.172524	1087.010498
3964.529682	0.083522	0.172524	1162.096558
3964.530566	0.083514	0.172524	1235.923340
3964.531502	0.083547	0.172524	1314.123657
3964.532415	0.083606	0.172524	1390.455933
3964.533314	0.083569	0.172524	1465.584717
3964.534226	0.083540	0.172524	1541.773193
3964.535145	0.083639	0.172524	1618.637329
3964.536055	0.083566	0.172524	1694.682129
3965.559241	0.855886	0.171344	371.454620
3965.560202	0.542626	0.171344	892.917969
3965.561146	0.088202	0.171344	976.180542
3965.562066	0.083423	0.171344	1052.929565
3965.562953	0.083507	0.171344	1127.000366
3965.563883	0.083481	0.171344	1204.638062
3965.564826	0.083566	0.171344	1283.440430
3965.565721	0.083591	0.171344	1358.254639
3965.566635	0.083602	0.171344	1434.667114
3965.567568	0.083580	0.171344	1512.647583
3965.568484	0.083448	0.171344	1589.086426
3965.569380	0.083555	0.171344	1663.951416
3966.573540	0.886589	0.175577	407.831085
3966.574480	0.536737	0.175577	912.363953
3966.575369	0.089048	0.175577	991.527466
3966.576312	0.083478	0.175577	1070.247070
3966.577253	0.083481	0.175577	1148.803101
3966.578152	0.083492	0.175577	1223.862793
3966.579090	0.083533	0.175577	1302.216431
3966.580026	0.083544	0.175577	1380.413330
3966.580936	0.083525	0.175577	1456.421387
3966.581824	0.083529	0.175577	1530.595215
3966.582771	0.083514	0.175577	1609.683350
3966.583707	0.083588	0.175577	1687.921387
3967.606481	0.859607	0.163098	379.946259
3967.607385	0.598517	0.163098	921.005493
3967.608316	0.090890	0.163098	1005.623962
3967.609227	0.083430	0.163098	1081.628906
3967.610145	0.083485	0.163098	1158.268188
3967.611032	0.083533	0.163098	1232.361694
3967.611980	0.083525	0.163098	1311.543701
3967.612877	0.083419	0.163098	1386.370728
3967.613785	0.083566	0.163098	1462.248413
3967.614682	0.083551	0.163098	1537.193726
3967.615637	0.083566	0.163098	1616.998901
3967.616542	0.083518	0.163098	1692.582764
3968.607229	0.883275	0.186732	430.154999
3968.608159	0.510483	0.186732	904.904541
3968.609056	0.088374	0.186732	984.176025
3968.609944	0.083416	0.186732	1058.249023
3968.610877	0.083668	0.186732	1136.311523
3968.611774	0.083551	0.186732	1211.256836
3968.612675	0.083606	0.186732	1286.585815
3968.613565	0.083544	0.186732	1360.939697
3968.614522	0.083632	0.186732	1440.975098
3968.615424	0.083518	0.186732	1516.308350
3968.616315	0.083584	0.186732	1590.781738
3968.617241	0.083540	0.186732	1668.139771
3969.660916	0.887391	0.156914	418.848694
3969.661832	0.542197	0.156914	915.501404
3969.662726	0.089355	0.156914	995.385193
3969.663676	0.083470	0.156914	1074.682129
3969.664608	0.083547	0.156914	1152.548218
3969.665503	0.083551	0.156914	1227.326416
3969.666415	0.083507	0.156914	1303.484863
3969.667346	0.083569	0.156914	1381.287964
3969.668274	0.083522	0.156914	1458.796143
3969.669168	0.083555	0.156914	1533.494019
3969.670095	0.083547	0.156914	1610.942383
3969.671029	0.083584	0.156914	1689.009766
3970.644940	0.863427	0.181914	379.907654
3970.645906	0.535840	0.181914	897.528931
3970.646833	0.087678	0.181914	978.806641
3970.647728	0.083427	0.181914	1053.473389
3970.648642	0.083591	0.181914	1129.875854
3970.649584	0.083529	0.181914	1208.560181
3970.650491	0.083562	0.181914	1284.350952
3970.651381	0.083419	0.181914	1358.593994
3970.652327	0.083474	0.181914	1437.560547
3970.653264	0.083514	0.181914	1515.813599
3970.654169	0.083540	0.181914	1591.417358
3970.655076	0.083533	0.181914	1667.181519
3971.702487	0.883623	0.166763	400.281250
3971.703423	0.545852	0.166763	911.198730
3971.704310	0.089597	0.166763	990.671387
3971.705279	0.083427	0.166763	1071.511719
3971.706184	0.083562	0.166763	1147.135376
3971.707074	0.083485	0.166763	1221.437134
3971.708028	0.083514	0.166763	1301.109863
3971.708932	0.083481	0.166763	1376.577148
3971.709853	0.083566	0.166763	1453.541138
3971.710741	0.083496	0.166763	1527.685669
3971.711684	0.083540	0.166763	1606.463867
3971.712586	0.083485	0.166763	1681.767456
3972.694745	0.876881	0.173249	392.842743
3972.695650	0.589534	0.173249	926.370728
3972.696537	0.090989	0.173249	1007.077759
3972.697496	0.083580	0.173249	1087.231323
3972.698398	0.083533	0.173249	1162.577881
3972.699291	0.083555	0.173249	1237.192261
3972.700233	0.083595	0.173249	1315.938721
3972.701134	0.083643	0.173249	1391.300659
3972.702024	0.083474	0.173249	1465.592651
3972.702914	0.083525	0.173249	1539.930298
3972.703852	0.083573	0.173249	1618.321777
3972.704759	0.083624	0.173249	1694.168945
3973.735918	0.878295	0.178313	411.041901
3973.736832	0.556139	0.178313	919.352905
3973.737756	0.088733	0.178313	1001.342102
3973.738644	0.083507	0.178313	1075.496338
3973.739589	0.083566	0.178313	1154.465942
3973.740514	0.083613	0.178313	1231.808228
3973.741413	0.083606	0.178313	1306.969971
3973.742326	0.083514	0.178313	1383.218628
3973.743255	0.083489	0.178313	1460.779663
3973.744192	0.083599	0.178313	1539.111572
3973.745092	0.083566	0.178313	1614.320679
3973.746018	0.083525	0.178313	1691.665161
3974.747097	0.864547	0.174341	380.400726
3974.748060	0.561097	0.174341	920.737549
3974.748961	0.088612	0.174341	1000.577026
3974.749871	0.083463	0.174341	1076.528442
3974.750770	0.083621	0.174341	1151.703369
3974.751710	0.083536	0.174341	1230.227539
3974.752623	0.083584	0.174341	1306.539673
3974.753548	0.083518	0.174341	1383.793945
3974.754436	0.083558	0.174341	1457.993774
3974.755395	0.083591	0.174341	1538.157837
3974.756321	0.083544	0.174341	1615.519287
3974.757214	0.083547	0.174341	1690.127075
3975.775692	0.858849	0.168403	378.752350
3975.776586	0.603420	0.168403	918.210205
3975.777540	0.089561	0.168403	1003.650940
3975.778436	0.083496	0.168403	1078.463379
3975.779327	0.083547	0.168403	1152.904053
3975.780250	0.083566	0.168403	1230.035156
3975.781179	0.083547	0.168403	1307.650635
3975.782086	0.083573	0.168403	1383.451294
3975.782977	0.083577	0.168403	1457.918091
3975.783919	0.083525	0.168403	1536.598999
3975.784829	0.083511	0.168403	1612.593750
3975.785726	0.083580	0.168403	1687.565308
3976.788170	0.857256	0.176302	373.763550
3976.789117	0.558519	0.176302	902.681335
3976.790066	0.088403	0.176302	986.576111
3976.790983	0.083503	0.176302	1063.148682
3976.791874	0.083503	0.176302	1137.550171
3976.792806	0.083507	0.176302	1215.378784
3976.793743	0.083500	0.176302	1293.618042
3976.794645	0.083551	0.176302	1368.981079
3976.795560	0.083536	0.176302	1445.416870
3976.796490	0.083514	0.176302	1523.085205
3976.797417	0.083518	0.176302	1600.506470
3976.798309	0.083551	0.176302	1675.033936
3977.824978	0.860984	0.163404	382.276855
3977.825881	0.601370	0.163404	925.313599
3977.826771	0.091157	0.163404	1006.443542
3977.827709	0.083452	0.163404	1084.721680
3977.828624	0.083558	0.163404	1161.177612
3977.829544	0.083562	0.163404	1238.054687
3977.830433	0.083544	0.163404	1312.325073
3977.831393	0.083481	0.163404	1392.467285
3977.832289	0.083511	0.163404	1467.292969
3977.833201	0.083503	0.163404	1543.448120
3977.834100	0.083518	0.163404	1618.530884
3977.835045	0.083507	0.163404	1697.445068
3978.824910	0.859933	0.187388	379.230377
3978.825801	0.607504	0.187388	920.516113
3978.826753	0.089421	0.187388	1005.645264
3978.827653	0.083525	0.187388	1080.818115
3978.828556	0.083551	0.187388	1156.264648
3978.829445	0.083555	0.187388	1230.544800
3978.830386	0.083650	0.187388	1309.259399
3978.831301	0.083500	0.187388	1385.661621
3978.832209	0.083624	0.187388	1461.592407
3978.833100	0.083569	0.187388	1536.052734
3978.834042	0.083533	0.187388	1614.740601
3978.834941	0.083533	0.187388	1689.836548
3979.874252	0.856201	0.158046	374.159912
3979.875145	0.609946	0.158046	918.841980
3979.876096	0.089908	0.158046	1004.344910
3979.877024	0.083452	0.158046	1081.788452
3979.877919	0.083569	0.158046	1156.583008
3979.878834	0.083507	0.158046	1232.991943
3979.879767	0.083577	0.158046	1310.968994
3979.880680	0.083591	0.158046	1387.287842
3979.881571	0.083503	0.158046	1461.689331
3979.882521	0.083492	0.158046	1541.007080
3979.883448	0.083511	0.158046	1618.421509
3979.884343	0.083544	0.158046	1693.193115
3980.862196	0.874948	0.185914	411.225342
3980.863106	0.556871	0.185914	917.978271
3980.863998	0.089769	0.185914	998.052490
3980.864955	0.083485	0.185914	1077.947754
3980.865891	0.083599	0.185914	1156.196045
3980.866789	0.083606	0.185914	1231.274170
3980.867708	0.083580	0.185914	1308.084473
3980.868631	0.083610	0.185914	1385.256104
3980.869557	0.083536	0.185914	1462.610840
3980.870447	0.083690	0.185914	1537.095093
3980.871368	0.083573	0.185914	1614.065796
3980.872309	0.083613	0.185914	1692.745850
3981.921254	0.874889	0.159947	399.824219
3981.922162	0.573783	0.159947	920.819153
3981.923050	0.090256	0.159947	1000.966797
3981.923992	0.083430	0.159947	1079.557983
3981.924905	0.083492	0.159947	1155.786621
3981.925824	0.083514	0.159947	1232.536377
3981.926721	0.083500	0.159947	1307.435669
3981.927677	0.083496	0.159947	1387.257935
3981.928599	0.083569	0.159947	1464.308838
3981.929491	0.083558	0.159947	1538.842896
3981.930429	0.083478	0.159947	1617.145020
3981.931336	0.083551	0.159947	1692.925781
3982.904809	0.892006	0.184166	414.782623
3982.905711	0.569172	0.184166	928.176025
3982.906670	0.088473	0.184166	1013.021545
3982.907585	0.083438	0.184166	1089.366821
3982.908476	0.083580	0.184166	1163.836914
3982.909362	0.083525	0.184166	1237.840454
3982.910313	0.083580	0.184166	1317.325317
3982.911216	0.083485	0.184166	1392.712402
3982.912111	0.083555	0.184166	1467.493896
3982.913040	0.083584	0.184166	1545.143433
3982.913944	0.083514	0.184166	1620.640503
3982.914840	0.083500	0.184166	1695.456299
3983.965697	0.876288	0.162409	428.504730
3983.966623	0.518372	0.162409	908.516846
3983.967532	0.088374	0.162409	988.848816
3983.968423	0.083474	0.162409	1063.224243
3983.969366	0.083547	0.162409	1142.009399
3983.970263	0.083438	0.162409	1216.852783
3983.971167	0.083533	0.162409	1292.366333
3983.972054	0.083518	0.162409	1366.446899
3983.973015	0.083577	0.162409	1446.764038
3983.973926	0.083525	0.162409	1522.855713
3983.974825	0.083573	0.162409	1597.987793
3983.975744	0.083580	0.162409	1674.798096
3984.949965	0.864075	0.181998	381.056946
3984.950861	0.597173	0.181998	916.123840
3984.951824	0.088989	0.181998	1001.820496
3984.952757	0.083459	0.181998	1079.688232
3984.953647	0.083591	0.181998	1154.084473
3984.954567	0.083547	0.181998	1230.947998
3984.955502	0.083573	0.181998	1309.088745
3984.956413	0.083584	0.181998	1385.233765
3984.957314	0.083591	0.181998	1460.549561
3984.958244	0.083533	0.181998	1538.234985
3984.959182	0.083500	0.181998	1616.557739
3984.960084	0.083533	0.181998	1691.904297
3986.007040	0.915370	0.162590	453.108093
3986.007970	0.501046	0.162590	919.080994
3986.008894	0.087389	0.162590	999.828369
3986.009790	0.083463	0.162590	1074.611328
3986.010746	0.083492	0.162590	1154.430054
3986.011665	0.083514	0.162590	1231.179810
3986.012566	0.083551	0.162590	1306.459229
3986.013484	0.083551	0.162590	1383.159058
3986.014406	0.083511	0.162590	1460.156006
3986.015324	0.083470	0.162590	1536.781860
3986.016215	0.083522	0.162590	1611.199707
3986.017149	0.083500	0.162590	1689.188477
3986.993888	0.884656	0.182268	402.518372
3986.994792	0.580137	0.182268	926.961975
3986.995700	0.090549	0.182268	1009.180786
3986.996633	0.083452	0.182268	1087.041626
3986.997530	0.083445	0.182268	1161.891602
3986.998416	0.083467	0.182268	1235.843140
3986.999354	0.083613	0.182268	1314.272461
3987.000258	0.083511	0.182268	1389.766113
3987.001162	0.083591	0.182268	1465.332642
3987.002052	0.083518	0.182268	1539.663696
3987.003012	0.083654	0.182268	1619.971069
3987.003911	0.083514	0.182268	1695.050537
3988.049874	0.874025	0.162973	392.437073
3988.050782	0.582469	0.162973	921.319336
3988.051671	0.090828	0.162973	1002.065125
3988.052641	0.083573	0.162973	1083.130981
3988.053554	0.083478	0.162973	1159.346191
3988.054451	0.083632	0.162973	1234.363770
3988.055388	0.083621	0.162973	1312.716309
3988.056290	0.083591	0.162973	1388.115723
3988.057190	0.083547	0.162973	1463.308350
3988.058077	0.083580	0.162973	1537.444092
3988.059008	0.083628	0.162973	1615.301758
3988.059915	0.083584	0.162973	1691.112427
3989.035748	0.874534	0.179469	396.163757
3989.036646	0.584121	0.179469	920.704468
3989.037570	0.090538	0.179469	1004.361877
3989.038509	0.083547	0.179469	1082.812866
3989.039425	0.083668	0.179469	1159.453003
3989.040313	0.083661	0.179469	1233.743896
3989.041247	0.083599	0.179469	1311.824951
3989.042165	0.083569	0.179469	1388.541626
3989.043091	0.083544	0.179469	1465.903076
3989.043988	0.083628	0.179469	1540.917358
3989.044910	0.083577	0.179469	1617.975098
3989.045841	0.083558	0.179469	1695.767944
3990.094324	0.880935	0.163194	411.396637
3990.095242	0.554751	0.163194	920.658081
3990.096136	0.089615	0.163194	1000.774292
3990.097061	0.083507	0.163194	1078.018311
3990.097993	0.083588	0.163194	1155.921997
3990.098909	0.083595	0.163194	1232.494995
3990.099805	0.083588	0.163194	1307.389526
3990.100722	0.083606	0.163194	1384.056152
3990.101657	0.083577	0.163194	1462.200317
3990.102572	0.083665	0.163194	1538.753418
3990.103461	0.083551	0.163194	1613.030273
3990.104408	0.083569	0.163194	1692.170410
3991.079444	0.915179	0.183239	467.656708
3991.080353	0.508982	0.183239	930.321289
3991.081279	0.087759	0.183239	1011.585937
3991.082165	0.083459	0.183239	1085.531006
3991.083115	0.083522	0.183239	1164.876587
3991.084024	0.083514	0.183239	1240.791138
3991.084921	0.083489	0.183239	1315.680542
3991.085857	0.083602	0.183239	1393.932251
3991.086773	0.083555	0.183239	1470.468384
3991.087678	0.083599	0.183239	1546.125122
3991.088570	0.083529	0.183239	1620.633057
3991.089508	0.083518	0.183239	1698.973022
3992.139989	0.868367	0.164109	389.028259
3992.140888	0.594822	0.164109	923.773071
3992.141841	0.089216	0.164109	1008.796204
3992.142747	0.083558	0.164109	1084.500122
3992.143648	0.083566	0.164109	1159.792847
3992.144539	0.083536	0.164109	1234.223755
3992.145494	0.083610	0.164109	1314.070923
3992.146396	0.083522	0.164109	1389.407471
3992.147293	0.083518	0.164109	1464.323120
3992.148222	0.083569	0.164109	1541.958984
3992.149122	0.083566	0.164109	1617.168091
3992.150030	0.083492	0.164109	1692.979248
3993.123529	0.860588	0.182288	376.077118
3993.124475	0.554832	0.182288	900.947754
3993.125429	0.088261	0.182288	985.148254
3993.126350	0.083555	0.182288	1062.102173
3993.127241	0.083580	0.182288	1136.572266
3993.128185	0.083562	0.182288	1215.454834
3993.129111	0.083595	0.182288	1292.863770
3993.130008	0.083569	0.182288	1367.825439
3993.130933	0.083544	0.182288	1445.103394
3993.131860	0.083511	0.182288	1522.517822
3993.132776	0.083573	0.182288	1599.070679
3993.133674	0.083507	0.182288	1674.060059
3994.177268	0.876530	0.163243	421.610687
3994.178211	0.506946	0.163243	899.660522
3994.179130	0.087649	0.163243	980.209900
3994.180019	0.083496	0.163243	1054.437988
3994.180967	0.083547	0.163243	1133.640869
3994.181904	0.083474	0.163243	1211.856079
3994.182805	0.083602	0.163243	1287.181763
3994.183719	0.083522	0.163243	1363.520630
3994.184658	0.083562	0.163243	1441.985352
3994.185592	0.083547	0.163243	1520.018555
3994.186492	0.083540	0.163243	1595.204590
3994.187407	0.083529	0.163243	1671.633667
3995.170548	0.913759	0.188484	436.776581
3995.171498	0.492056	0.188484	904.229492
3995.172387	0.088132	0.188484	982.579102
3995.173321	0.083405	0.188484	1060.479004
3995.174254	0.083496	0.188484	1138.380859
3995.175176	0.083551	0.188484	1215.414917
3995.176064	0.083474	0.188484	1289.539917
3995.176997	0.083448	0.188484	1367.397339
3995.177932	0.083478	0.188484	1445.449097
3995.178830	0.083390	0.188484	1520.333252
3995.179749	0.083481	0.188484	1597.052734
3995.180693	0.083511	0.188484	1675.886841
3996.216537	0.867869	0.165285	385.333679
3996.217450	0.582001	0.165285	916.700378
3996.218340	0.090564	0.165285	997.302307
3996.219286	0.083503	0.165285	1076.296509
3996.220194	0.083507	0.165285	1152.120972
3996.221111	0.083569	0.165285	1228.754028
3996.222000	0.083566	0.165285	1303.043945
3996.222952	0.083496	0.165285	1382.532227
3996.223866	0.083599	0.165285	1458.941406
3996.224784	0.083558	0.165285	1535.647949
3996.225669	0.083518	0.165285	1609.561401
3996.226612	0.083522	0.165285	1688.322388
3997.219797	0.868832	0.180742	385.761292
3997.220699	0.599275	0.180742	926.307251
3997.221591	0.091267	0.180742	1007.717529
3997.222554	0.083529	0.180742	1088.156006
3997.223456	0.083540	0.180742	1163.509155
3997.224350	0.083617	0.180742	1238.262695
3997.225286	0.083555	0.180742	1316.469849
3997.226198	0.083595	0.180742	1392.708496
3997.227097	0.083459	0.180742	1467.738525
3997.227985	0.083514	0.180742	1541.899292
3997.228924	0.083562	0.180742	1620.364014
3997.229833	0.083525	0.180742	1696.288574
3998.255059	0.868660	0.167263	385.684906
3998.255983	0.573131	0.167263	915.258057
3998.256878	0.090242	0.167263	996.024353
3998.257819	0.083540	0.167263	1074.635498
3998.258720	0.083584	0.167263	1149.944702
3998.259621	0.083610	0.167263	1225.276978
3998.260505	0.083566	0.167263	1299.149048
3998.261447	0.083698	0.167263	1377.992065
3998.262360	0.083580	0.167263	1454.300903
3998.263257	0.083577	0.167263	1529.269165
3998.264177	0.083562	0.167263	1606.146240
3998.265101	0.083617	0.167263	1683.408325
3999.266544	0.885062	0.175807	419.519531
3999.267490	0.509465	0.175807	901.473755
3999.268415	0.087422	0.175807	982.338989
3999.269303	0.083412	0.175807	1056.408691
3999.270258	0.083492	0.175807	1136.143921
3999.271193	0.083459	0.175807	1214.178467
3999.272111	0.083474	0.175807	1290.807739
3999.272998	0.083456	0.175807	1364.833008
3999.273930	0.083492	0.175807	1442.647949
3999.274872	0.083518	0.175807	1521.322021
3999.275784	0.083562	0.175807	1597.530518
3999.276691	0.083529	0.175807	1673.291382
4000.296447	0.895551	0.174067	431.655365
4000.297377	0.513003	0.174067	908.748047
4000.298271	0.088359	0.174067	987.741333
4000.299187	0.083423	0.174067	1064.156616
4000.300120	0.083496	0.174067	1142.058472
4000.301033	0.083470	0.174067	1218.266968
4000.301928	0.083489	0.174067	1292.989380
4000.302870	0.083529	0.174067	1371.673706
4000.303800	0.083430	0.174067	1449.263794
4000.304703	0.083430	0.174067	1524.601196
4000.305622	0.083540	0.174067	1601.374512
4000.306552	0.083459	0.174067	1678.991821
4001.306076	0.871146	0.178027	393.758087
4001.306985	0.582858	0.178027	923.575684
4001.307873	0.090710	0.178027	1004.126587
4001.308820	0.083434	0.178027	1083.138428
4001.309712	0.083481	0.178027	1157.603882
4001.310602	0.083544	0.178027	1231.957764
4001.311543	0.083569	0.178027	1310.596558
4001.312443	0.083463	0.178027	1385.713379
4001.313371	0.083540	0.178027	1463.238525
4001.314258	0.083558	0.178027	1537.354736
4001.315203	0.083562	0.178027	1616.320801
4001.316118	0.083511	0.178027	1692.733154
4002.346704	0.869209	0.170095	388.536407
4002.347683	0.507213	0.170095	885.098145
4002.348584	0.088268	0.170095	964.627441
4002.349481	0.083511	0.170095	1039.536621
4002.350388	0.083514	0.170095	1115.284180
4002.351325	0.083661	0.170095	1193.674438
4002.352239	0.083514	0.170095	1270.006592
4002.353143	0.083584	0.170095	1345.566528
4002.354067	0.083610	0.170095	1422.821777
4002.354973	0.083591	0.170095	1498.555542
4002.355873	0.083555	0.170095	1573.754761
4002.356758	0.083566	0.170095	1647.710327
4003.342276	0.857509	0.178232	372.158691
4003.343222	0.557904	0.178232	899.935852
4003.344180	0.087975	0.178232	984.215759
4003.345101	0.083555	0.178232	1061.169678
4003.345990	0.083544	0.178232	1135.440063
4003.346933	0.083529	0.178232	1214.208008
4003.347866	0.083500	0.178232	1292.113281
4003.348758	0.083558	0.178232	1366.647339
4003.349671	0.083518	0.178232	1442.899292
4003.350609	0.083481	0.178232	1521.204834
4003.351526	0.083558	0.178232	1597.827881
4003.352427	0.083511	0.178232	1673.071045
4004.397016	0.863584	0.166711	384.294861
4004.397917	0.597400	0.166711	922.552185
4004.398834	0.091047	0.166711	1006.042603
4004.399781	0.083342	0.166711	1084.967773
4004.400697	0.083489	0.166711	1161.443481
4004.401586	0.083544	0.166711	1235.713867
4004.402525	0.083474	0.166711	1314.096069
4004.403453	0.083518	0.166711	1391.600830
4004.404382	0.083525	0.166711	1469.195923
4004.405272	0.083485	0.166711	1543.497681
4004.406224	0.083569	0.166711	1623.055664
4004.407152	0.083555	0.166711	1700.594360
4005.382621	0.865635	0.185966	393.863800
4005.383516	0.590175	0.185966	922.070068
4005.384462	0.090579	0.185966	1007.757446
4005.385380	0.083492	0.185966	1084.403564
4005.386288	0.083632	0.185966	1160.341064
4005.387175	0.083547	0.185966	1234.447510
4005.388113	0.083536	0.185966	1312.804687
4005.389032	0.083573	0.185966	1389.608276
4005.389953	0.083573	0.185966	1466.578979
4005.390842	0.083573	0.185966	1540.875366
4005.391786	0.083588	0.185966	1619.782104
4005.392680	0.083573	0.185966	1694.496338
4006.438377	0.887739	0.163025	408.360077
4006.439285	0.569689	0.163025	925.637451
4006.440172	0.090007	0.163025	1005.473938
4006.441109	0.083430	0.163025	1083.647949
4006.442023	0.083555	0.163025	1160.016968
4006.442943	0.083514	0.163025	1236.850220
4006.443845	0.083558	0.163025	1312.219849
4006.444801	0.083511	0.163025	1392.056152
4006.445714	0.083507	0.163025	1468.298096
4006.446637	0.083492	0.163025	1545.361572
4006.447526	0.083500	0.163025	1619.592896
4006.448472	0.083489	0.163025	1698.573242
4007.431374	0.867469	0.187304	384.288971
4007.432285	0.591588	0.187304	923.225708
4007.433185	0.090883	0.187304	1005.020020
4007.434136	0.083522	0.187304	1084.449219
4007.435043	0.083492	0.187304	1160.176880
4007.435941	0.083500	0.187304	1235.159668
4007.436876	0.083525	0.187304	1313.255859
4007.437770	0.083514	0.187304	1387.917725
4007.438670	0.083492	0.187304	1463.060913
4007.439560	0.083496	0.187304	1537.372437
4007.440505	0.083555	0.187304	1616.331665
4007.441418	0.083555	0.187304	1692.617065
4008.474586	0.868605	0.166606	387.397705
4008.475490	0.592145	0.166606	922.696594
4008.476446	0.089535	0.166606	1008.291992
4008.477349	0.083489	0.166606	1083.682373
4008.478258	0.083584	0.166606	1159.660156
4008.479149	0.083551	0.166606	1234.104126
4008.480075	0.083599	0.166606	1311.516479
4008.480986	0.083555	0.166606	1387.634766
4008.481892	0.083547	0.166606	1463.328613
4008.482780	0.083547	0.166606	1537.518677
4008.483722	0.083580	0.166606	1616.251343
4008.484625	0.083525	0.166606	1691.674805
4009.482492	0.894602	0.177720	432.092804
4009.483418	0.515123	0.177720	909.096985
4009.484320	0.088242	0.177720	988.691406
4009.485243	0.083412	0.177720	1065.680542
4009.486186	0.083562	0.177720	1144.479492
4009.487099	0.083525	0.177720	1220.738159
4009.487994	0.083474	0.177720	1295.447510
4009.488946	0.083500	0.177720	1374.939209
4009.489885	0.083529	0.177720	1453.373047
4009.490781	0.083518	0.177720	1528.205200
4009.491703	0.083481	0.177720	1605.175049
4009.492645	0.083448	0.177720	1683.783569
4010.512874	0.897448	0.171992	422.697784
4010.513778	0.562526	0.171992	931.220947
4010.514719	0.088700	0.171992	1014.687622
4010.515630	0.083467	0.171992	1090.725830
4010.516554	0.083628	0.171992	1167.998047
4010.517440	0.083525	0.171992	1242.001587
4010.518397	0.083613	0.171992	1322.019531
4010.519327	0.083562	0.171992	1399.732178
4010.520221	0.083533	0.171992	1474.410400
4010.521162	0.083525	0.171992	1553.007812
4010.522081	0.083610	0.171992	1629.845093
4010.523004	0.083551	0.171992	1706.962646
4011.525348	0.867715	0.180778	395.677948
4011.526247	0.585916	0.180778	922.416016
4011.527196	0.090480	0.180778	1008.281311
4011.528101	0.083401	0.180778	1083.759155
4011.529025	0.083533	0.180778	1160.943359
4011.529914	0.083467	0.180778	1235.145386
4011.530846	0.083485	0.180778	1312.953491
4011.531767	0.083459	0.180778	1389.819702
4011.532688	0.083514	0.180778	1466.736450
4011.533579	0.083518	0.180778	1541.151001
4011.534533	0.083496	0.180778	1620.806274
4011.535430	0.083427	0.180778	1695.639893
4012.559048	0.857765	0.177378	375.700989
4012.560025	0.560676	0.177378	923.481689
4012.560934	0.088165	0.177378	1003.623901
4012.561829	0.083463	0.177378	1078.323364
4012.562725	0.083522	0.177378	1153.158813
4012.563659	0.083595	0.177378	1231.236572
4012.564566	0.083540	0.177378	1307.007446
4012.565464	0.083507	0.177378	1381.996826
4012.566351	0.083540	0.177378	1456.096802
4012.567299	0.083544	0.177378	1535.296265
4012.568204	0.083492	0.177378	1610.856934
4012.569094	0.083525	0.177378	1685.194580
4013.562614	0.894650	0.177076	424.063965
4013.563549	0.525714	0.177076	915.606689
4013.564440	0.088773	0.177076	994.703613
4013.565373	0.083474	0.177076	1072.584961
4013.566316	0.083547	0.177076	1151.370117
4013.567243	0.083503	0.177076	1228.777832
4013.568142	0.083536	0.177076	1303.877075
4013.569074	0.083551	0.177076	1381.746582
4013.569983	0.083617	0.177076	1457.754395
4013.570887	0.083547	0.177076	1533.281250
4013.571787	0.083602	0.177076	1608.523315
4013.572711	0.083610	0.177076	1685.778564
4014.608889	0.875295	0.172512	415.765320
4014.609791	0.557457	0.172512	918.591797
4014.610691	0.089524	0.172512	999.163330
4014.611635	0.083438	0.172512	1077.928345
4014.612559	0.083492	0.172512	1155.075317
4014.613475	0.083536	0.172512	1231.594604
4014.614361	0.083492	0.172512	1305.568848
4014.615306	0.083551	0.172512	1384.524536
4014.616240	0.083496	0.172512	1462.509888
4014.617141	0.083536	0.172512	1537.776123
4014.618063	0.083459	0.172512	1614.725708
4014.619000	0.083591	0.172512	1693.050781
4015.601625	0.864983	0.179618	387.512329
4015.602533	0.584832	0.179618	918.539368
4015.603422	0.090758	0.179618	999.223267
4015.604385	0.083470	0.179618	1079.605347
4015.605302	0.083456	0.179618	1156.134277
4015.606194	0.083540	0.179618	1230.651978
4015.607117	0.083518	0.179618	1307.739136
4015.608059	0.083518	0.179618	1386.413208
4015.608980	0.083558	0.179618	1463.370483
4015.609874	0.083492	0.179618	1538.012695
4015.610811	0.083566	0.179618	1616.313721
4015.611727	0.083529	0.179618	1692.826294
4016.656392	0.906445	0.165595	454.129120
4016.657317	0.500779	0.165595	917.349548
4016.658221	0.087854	0.165595	996.769592
4016.659108	0.083459	0.165595	1070.798096
4016.660059	0.083551	0.165595	1150.255127
4016.660956	0.083438	0.165595	1225.098511
4016.661849	0.083492	0.165595	1299.657227
4016.662749	0.083445	0.165595	1374.757568
4016.663674	0.083507	0.165595	1452.001587
4016.664579	0.083525	0.165595	1527.592041
4016.665473	0.083459	0.165595	1602.204834
4016.666402	0.083511	0.165595	1679.786377
4017.642238	0.916289	0.186337	444.400208
4017.643176	0.505646	0.186337	918.695923
4017.644093	0.087773	0.186337	999.184143
4017.644985	0.083470	0.186337	1073.639771
4017.645929	0.083503	0.186337	1152.467041
4017.646872	0.083555	0.186337	1231.259155
4017.647773	0.083584	0.186337	1306.568359
4017.648695	0.083580	0.186337	1383.629395
4017.649640	0.083485	0.186337	1462.522827
4017.650552	0.083522	0.186337	1538.694580
4017.651439	0.083540	0.186337	1612.794556
4017.652386	0.083470	0.186337	1691.841064
4018.699992	0.864445	0.164701	381.220062
4018.700886	0.598795	0.164701	916.542847
4018.701845	0.089487	0.164701	1002.361206
4018.702769	0.083511	0.164701	1079.525146
4018.703659	0.083496	0.164701	1153.836670
4018.704575	0.083533	0.164701	1230.352661
4018.705510	0.083507	0.164701	1308.431763
4018.706420	0.083533	0.164701	1384.446533
4018.707313	0.083525	0.164701	1459.034668
4018.708255	0.083518	0.164701	1537.708740
4018.709204	0.083452	0.164701	1616.904785
4018.710100	0.083588	0.164701	1691.799316
4019.686606	0.876962	0.188875	388.494019
4019.687587	0.499329	0.188875	878.335327
4019.688525	0.086964	0.188875	959.907654
4019.689415	0.083478	0.188875	1034.202881
4019.690356	0.083533	0.188875	1112.807129
4019.691275	0.083566	0.188875	1189.604004
4019.692193	0.083558	0.188875	1266.310547
4019.693080	0.083459	0.188875	1340.339111
4019.694029	0.083569	0.188875	1419.646362
4019.694937	0.083478	0.188875	1495.444214
4019.695839	0.083518	0.188875	1570.777466
4019.696758	0.083555	0.188875	1647.564209
4020.740057	0.874124	0.163907	388.110840
4020.740971	0.584136	0.163907	922.010925
4020.741857	0.090751	0.163907	1002.416077
4020.742805	0.083481	0.163907	1081.556519
4020.743713	0.083459	0.163907	1157.337769
4020.744607	0.083518	0.163907	1232.002930
4020.745498	0.083463	0.163907	1306.368530
4020.746446	0.083474	0.163907	1385.501953
4020.747346	0.083496	0.163907	1460.648437
4020.748242	0.083470	0.163907	1535.437988
4020.749170	0.083591	0.163907	1613.010742
4020.750074	0.083547	0.163907	1688.537598
4021.732821	0.870381	0.189330	386.449097
4021.733746	0.569557	0.189330	913.289246
4021.734651	0.089667	0.189330	994.437622
4021.735595	0.083584	0.189330	1073.340942
4021.736508	0.083577	0.189330	1149.646484
4021.737413	0.083467	0.189330	1225.183960
4021.738299	0.083518	0.189330	1299.180908
4021.739240	0.083606	0.189330	1377.854126
4021.740150	0.083577	0.189330	1453.908936
4021.741041	0.083558	0.189330	1528.359375
4021.741982	0.083547	0.189330	1606.977417
4021.742889	0.083646	0.189330	1682.844604
4022.781943	0.908679	0.166663	432.531281
4022.782878	0.516178	0.166663	915.157654
4022.783767	0.088594	0.166663	993.917480
4022.784715	0.083456	0.166663	1073.033569
4022.785658	0.083562	0.166663	1151.832520
4022.786550	0.083540	0.166663	1226.350220
4022.787468	0.083529	0.166663	1303.029907
4022.788409	0.083448	0.166663	1381.554932
4022.789324	0.083547	0.166663	1458.000732
4022.790219	0.083558	0.166663	1532.785400
4022.791160	0.083544	0.166663	1611.400024
4022.792091	0.083507	0.166663	1689.145142
4023.778509	0.865063	0.188979	383.223114
4023.779405	0.595012	0.188979	916.354004
4023.780361	0.088748	0.188979	1001.196655
4023.781288	0.083427	0.188979	1078.533081
4023.782175	0.083555	0.188979	1152.646118
4023.783112	0.083533	0.188979	1230.916260
4023.784032	0.083536	0.188979	1307.769775
4023.784949	0.083533	0.188979	1384.369263
4023.785839	0.083591	0.188979	1458.765503
4023.786782	0.083470	0.188979	1537.478149
4023.787681	0.083514	0.188979	1612.557617
4023.788599	0.083544	0.188979	1689.250732
4024.823770	0.873402	0.168693	394.777740
4024.824669	0.592939	0.168693	927.830322
4024.825610	0.090150	0.168693	1012.661621
4024.826521	0.083489	0.168693	1088.719849
4024.827419	0.083540	0.168693	1163.738770
4024.828310	0.083522	0.168693	1238.156616
4024.829234	0.083661	0.168693	1315.459229
4024.830136	0.083602	0.168693	1390.868530
4024.831026	0.083544	0.168693	1465.222412
4024.831932	0.083621	0.168693	1540.982666
4024.832863	0.083610	0.168693	1618.823242
4024.833770	0.083503	0.168693	1694.560791
4025.823190	0.874845	0.189632	395.429932
4025.824088	0.592562	0.189632	927.550842
4025.825046	0.089949	0.189632	1013.721741
4025.825945	0.083467	0.189632	1088.758423
4025.826838	0.083533	0.189632	1163.353149
4025.827723	0.083540	0.189632	1237.286133
4025.828661	0.083584	0.189632	1315.687866
4025.829562	0.083569	0.189632	1390.983887
4025.830462	0.083525	0.189632	1466.156738
4025.831368	0.083558	0.189632	1541.860596
4025.832305	0.083606	0.189632	1620.199341
4025.833219	0.083492	0.189632	1696.511475
4026.866390	0.859926	0.168068	379.227142
4026.867340	0.550426	0.168068	902.131836
4026.868272	0.088323	0.168068	984.448608
4026.869172	0.083536	0.168068	1059.631348
4026.870093	0.083511	0.168068	1136.544678
4026.871028	0.083533	0.168068	1214.647705
4026.871962	0.083522	0.168068	1292.656982
4026.872858	0.083599	0.168068	1367.561401
4026.873782	0.083547	0.168068	1444.759155
4026.874715	0.083544	0.168068	1522.705444
4026.875638	0.083584	0.168068	1599.853516
4026.876525	0.083448	0.168068	1673.872314
4027.865540	0.859296	0.189439	373.793610
4027.866481	0.554465	0.189439	895.545532
4027.867432	0.088162	0.189439	979.387207
4027.868343	0.083511	0.189439	1055.465454
4027.869240	0.083525	0.189439	1130.387695
4027.870192	0.083496	0.189439	1209.875977
4027.871129	0.083536	0.189439	1288.149536
4027.872030	0.083529	0.189439	1363.409180
4027.872943	0.083503	0.189439	1439.647827
4027.873881	0.083485	0.189439	1517.956909
4027.874795	0.083511	0.189439	1594.285767
4027.875681	0.083536	0.189439	1668.298950
4028.911050	0.864818	0.167734	381.384766
4028.911983	0.579005	0.167734	921.596558
4028.912927	0.088063	0.167734	1004.727783
4028.913832	0.083427	0.167734	1080.228760
4028.914721	0.083562	0.167734	1154.515381
4028.915659	0.083573	0.167734	1232.906860
4028.916578	0.083463	0.167734	1309.609497
4028.917492	0.083496	0.167734	1385.924927
4028.918380	0.083492	0.167734	1460.066162
4028.919322	0.083503	0.167734	1538.726318
4028.920227	0.083452	0.167734	1614.250488
4028.921141	0.083485	0.167734	1690.555908
4029.906894	0.863463	0.190401	384.241089
4029.907787	0.603728	0.190401	923.370178
4029.908736	0.089388	0.190401	1008.199829
4029.909629	0.083445	0.190401	1082.716064
4029.910519	0.083525	0.190401	1157.053711
4029.911428	0.083606	0.190401	1233.051514
4029.912364	0.083503	0.190401	1311.210693
4029.913271	0.083496	0.190401	1386.941650
4029.914165	0.083536	0.190401	1461.623169
4029.915095	0.083602	0.190401	1539.373291
4029.915996	0.083533	0.190401	1614.636230
4029.916890	0.083485	0.190401	1689.271973
4030.956756	0.868883	0.165946	386.652954
4030.957702	0.569037	0.165946	924.961853
4030.958602	0.089125	0.165946	1005.174133
4030.959499	0.083412	0.165946	1079.994629
4030.960386	0.083489	0.165946	1154.049194
4030.961321	0.083544	0.165946	1232.162598
4030.962231	0.083558	0.165946	1308.200684
4030.963132	0.083481	0.165946	1383.417480
4030.964024	0.083470	0.165946	1457.873169
4030.964972	0.083459	0.165946	1536.992798
4030.965879	0.083503	0.165946	1612.730347
4030.966773	0.083492	0.165946	1687.372559
4031.946974	0.881191	0.190812	395.654938
4031.947914	0.546068	0.190812	908.958984
4031.948804	0.089615	0.190812	988.716736
4031.949733	0.083547	0.190812	1066.332275
4031.950667	0.083595	0.190812	1144.410034
4031.951583	0.083569	0.190812	1220.959595
4031.952468	0.083617	0.190812	1294.960571
4031.953403	0.083456	0.190812	1372.991699
4031.954340	0.083518	0.190812	1451.248169
4031.955238	0.083639	0.190812	1526.355957
4031.956156	0.083540	0.190812	1603.045654
4031.957090	0.083551	0.190812	1681.082275
4033.003255	0.881971	0.162393	426.874176
4033.004161	0.548851	0.162393	924.133423
4033.005102	0.089275	0.162393	1008.141113
4033.006012	0.083434	0.162393	1084.065918
4033.006930	0.083518	0.162393	1160.735474
4033.007829	0.083500	0.162393	1235.801758
4033.008765	0.083628	0.162393	1314.077515
4033.009674	0.083525	0.162393	1390.002075
4033.010596	0.083525	0.162393	1467.012451
4033.011485	0.083511	0.162393	1541.253540
4033.012434	0.083496	0.162393	1620.491333
4033.013335	0.083533	0.162393	1695.754272
4033.988833	0.879855	0.189104	399.454041
4033.989734	0.583535	0.189104	925.219177
4033.990663	0.090586	0.189104	1009.373535
4033.991579	0.083478	0.189104	1085.839233
4033.992490	0.083485	0.189104	1161.894165
4033.993380	0.083533	0.189104	1236.238281
4033.994309	0.083547	0.189104	1313.853760
4033.995215	0.083580	0.189104	1389.577515
4033.996113	0.083540	0.189104	1464.596436
4033.997000	0.083547	0.189104	1538.702881
4033.997951	0.083595	0.189104	1618.201660
4033.998858	0.083481	0.189104	1693.919312
4035.047162	0.902479	0.165990	426.872681
4035.048088	0.531024	0.165990	918.601074
4035.048980	0.088938	0.165990	997.933777
4035.049904	0.083448	0.165990	1075.040161
4035.050845	0.083511	0.165990	1153.623779
4035.051753	0.083555	0.165990	1229.491455
4035.052642	0.083529	0.165990	1303.748779
4035.053599	0.083496	0.165990	1383.654541
4035.054533	0.083481	0.165990	1461.626221
4035.055449	0.083533	0.165990	1538.142212
4035.056340	0.083474	0.165990	1612.517700
4035.057285	0.083481	0.165990	1691.407715
4036.033530	0.903787	0.187147	431.106232
4036.034438	0.550100	0.187147	930.597107
4036.035335	0.089421	0.187147	1010.808105
4036.036287	0.083379	0.187147	1090.184814
4036.037224	0.083430	0.187147	1168.358887
4036.038127	0.083500	0.187147	1243.759155
4036.039041	0.083430	0.187147	1320.014282
4036.039983	0.083481	0.187147	1398.653809
4036.040901	0.083478	0.187147	1475.286377
4036.041789	0.083514	0.187147	1549.447144
4036.042736	0.083434	0.187147	1628.458984
4036.043664	0.083489	0.187147	1705.936523
4037.087687	0.869421	0.171122	379.067719
4037.088672	0.509172	0.171122	880.602539
4037.089581	0.087931	0.171122	960.531738
4037.090475	0.083448	0.171122	1035.134644
4037.091400	0.083540	0.171122	1112.409180
4037.092323	0.083511	0.171122	1189.489624
4037.093244	0.083507	0.171122	1266.399658
4037.094138	0.083489	0.171122	1341.038574
4037.095083	0.083448	0.171122	1419.897339
4037.095978	0.083555	0.171122	1494.678833
4037.096891	0.083525	0.171122	1570.937500
4037.097789	0.083496	0.171122	1645.916992
4038.080976	0.862006	0.180709	379.282501
4038.081908	0.573450	0.180709	913.737671
4038.082807	0.089777	0.180709	994.446838
4038.083741	0.083536	0.180709	1072.469849
4038.084642	0.083573	0.180709	1147.769165
4038.085542	0.083456	0.180709	1222.879395
4038.086434	0.083478	0.180709	1297.341553
4038.087391	0.083573	0.180709	1377.320923
4038.088283	0.083492	0.180709	1451.796143
4038.089189	0.083547	0.180709	1527.489990
4038.090083	0.083551	0.180709	1602.184570
4038.091046	0.083555	0.180709	1682.647705
4039.124956	0.866624	0.176621	389.113953
4039.125855	0.596532	0.176621	925.396179
4039.126785	0.090828	0.176621	1009.865906
4039.127707	0.083441	0.176621	1086.798706
4039.128612	0.083588	0.176621	1162.445557
4039.129514	0.083584	0.176621	1237.838257
4039.130444	0.083632	0.176621	1315.615601
4039.131349	0.083474	0.176621	1391.159668
4039.132248	0.083507	0.176621	1466.232544
4039.133138	0.083529	0.176621	1540.573364
4039.134077	0.083544	0.176621	1619.020874
4039.134984	0.083492	0.176621	1694.748535
4040.130017	0.876504	0.177926	397.056274
4040.130957	0.542911	0.177926	907.393005
4040.131855	0.089110	0.177926	987.413879
4040.132808	0.083459	0.177926	1066.950806
4040.133741	0.083507	0.177926	1144.862915
4040.134642	0.083547	0.177926	1220.139038
4040.135561	0.083470	0.177926	1296.848389
4040.136483	0.083463	0.177926	1373.801392
4040.137418	0.083525	0.177926	1451.897583
4040.138304	0.083588	0.177926	1525.956299
4040.139231	0.083525	0.177926	1603.384277
4040.140161	0.083474	0.177926	1681.015259
4041.162725	0.873146	0.178059	401.647064
4041.163620	0.584139	0.178059	924.451782
4041.164547	0.090707	0.178059	1008.536987
4041.165471	0.083518	0.178059	1085.707642
4041.166398	0.083573	0.178059	1163.179810
4041.167291	0.083551	0.178059	1237.790894
4041.168226	0.083566	0.178059	1315.924805
4041.169136	0.083551	0.178059	1391.956299
4041.170056	0.083525	0.178059	1468.799683
4041.170943	0.083562	0.178059	1542.919189
4041.171893	0.083518	0.178059	1622.261353
4041.172811	0.083492	0.178059	1698.907471
4042.176709	0.854055	0.179920	369.805878
4042.177685	0.531387	0.179920	888.439331
4042.178606	0.088008	0.179920	969.494507
4042.179533	0.083467	0.179920	1046.868164
4042.180423	0.083489	0.179920	1121.173218
4042.181377	0.083551	0.179920	1200.880859
4042.182270	0.083518	0.179920	1275.462524
4042.183155	0.083540	0.179920	1349.395508
4042.184087	0.083500	0.179920	1427.217285
4042.184998	0.083529	0.179920	1503.312256
4042.185898	0.083551	0.179920	1578.508179
4042.186788	0.083591	0.179920	1652.904419
4043.205836	0.858915	0.174337	379.640350
4043.206818	0.519309	0.174337	889.601929
4043.207719	0.088143	0.174337	969.019043
4043.208625	0.083478	0.174337	1044.649902
4043.209515	0.083489	0.174337	1118.954956
4043.210463	0.083617	0.174337	1198.223877
4043.211370	0.083518	0.174337	1273.974731
4043.212270	0.083507	0.174337	1349.131104
4043.213202	0.083544	0.174337	1426.993774
4043.214106	0.083544	0.174337	1502.517334
4043.215011	0.083569	0.174337	1578.147583
4043.215899	0.083507	0.174337	1652.301880
4044.217805	0.865463	0.185439	381.669037
4044.218700	0.596499	0.185439	915.535645
4044.219677	0.088469	0.185439	1001.970093
4044.220622	0.083463	0.185439	1080.842773
4044.221521	0.083533	0.185439	1155.938721
4044.222447	0.083558	0.185439	1233.313721
4044.223395	0.083481	0.185439	1312.454102
4044.224311	0.083525	0.185439	1388.963379
4044.225200	0.083540	0.185439	1463.230469
4044.226135	0.083496	0.185439	1541.299316
4044.227073	0.083533	0.185439	1619.652954
4044.227995	0.083540	0.185439	1696.676880
4045.254600	0.868887	0.169329	381.441254
4045.255566	0.520005	0.169329	883.765991
4045.256492	0.087847	0.169329	965.112000
4045.257391	0.083503	0.169329	1040.181519
4045.258309	0.083507	0.169329	1116.841064
4045.259245	0.083566	0.169329	1195.058594
4045.260157	0.083584	0.169329	1271.287231
4045.261043	0.083474	0.169329	1345.245361
4045.261990	0.083525	0.169329	1424.343872
4045.262927	0.083547	0.169329	1502.627686
4045.263827	0.083562	0.169329	1577.833496
4045.264754	0.083595	0.169329	1655.326050
4046.254552	0.878221	0.193040	398.712524
4046.255456	0.583217	0.193040	925.940308
4046.256345	0.090776	0.193040	1006.640503
4046.257302	0.083540	0.193040	1086.588379
4046.258207	0.083503	0.193040	1162.158936
4046.259128	0.083547	0.193040	1239.106079
4046.260016	0.083536	0.193040	1313.286377
4046.260961	0.083514	0.193040	1392.207520
4046.261865	0.083558	0.193040	1467.744263
4046.262756	0.083584	0.193040	1542.217651
4046.263691	0.083573	0.193040	1620.358398
4046.264610	0.083562	0.193040	1697.151855
4047.303909	0.883242	0.164141	400.108704
4047.304814	0.579360	0.164141	924.429810
4047.305704	0.090575	0.164141	1005.041504
4047.306656	0.083522	0.164141	1084.554199
4047.307558	0.083606	0.164141	1159.966797
4047.308457	0.083536	0.164141	1235.066040
4047.309345	0.083474	0.164141	1309.191040
4047.310284	0.083569	0.164141	1387.662598
4047.311181	0.083496	0.164141	1462.558594
4047.312101	0.083525	0.164141	1539.401978
4047.312990	0.083558	0.164141	1613.685303
4047.313925	0.083558	0.164141	1691.812378
4048.292052	0.864580	0.190724	386.467285
4048.293014	0.532046	0.190724	898.295410
4048.293923	0.088678	0.190724	978.903687
4048.294818	0.083463	0.190724	1053.603149
4048.295707	0.083544	0.190724	1127.873535
4048.296655	0.083558	0.190724	1207.086914
4048.297563	0.083474	0.190724	1282.881470
4048.298461	0.083511	0.190724	1357.874146
4048.299391	0.083573	0.190724	1435.597046
4048.300294	0.083544	0.190724	1511.036987
4048.301196	0.083518	0.190724	1586.370239
4048.302085	0.083522	0.190724	1660.621094
4049.350868	0.863771	0.168467	378.331573
4049.351805	0.577137	0.168467	919.109375
4049.352737	0.088905	0.168467	1001.968872
4049.353658	0.083492	0.168467	1078.865356
4049.354543	0.083562	0.168467	1152.817749
4049.355475	0.083566	0.168467	1230.700928
4049.356411	0.083507	0.168467	1308.863525
4049.357311	0.083544	0.168467	1384.052856
4049.358228	0.083514	0.168467	1460.635620
4049.359155	0.083511	0.168467	1538.050049
4049.360082	0.083555	0.168467	1615.505249
4049.360996	0.083522	0.168467	1691.844116
4050.336206	0.858915	0.186430	376.204681
4050.337102	0.612136	0.186430	924.678711
4050.338067	0.089707	0.186430	1011.245972
4050.338990	0.083430	0.186430	1088.252075
4050.339884	0.083555	0.186430	1162.949951
4050.340794	0.083485	0.186430	1238.921387
4050.341719	0.083470	0.186430	1316.131592
4050.342658	0.083481	0.186430	1394.520630
4050.343558	0.083606	0.186430	1469.765991
4050.344488	0.083529	0.186430	1547.447998
4050.345427	0.083547	0.186430	1625.898926
4050.346345	0.083613	0.186430	1702.655884
4051.390694	0.886322	0.173011	405.935486
4051.391603	0.561083	0.173011	915.959717
4051.392533	0.088942	0.173011	998.675476
4051.393419	0.083427	0.173011	1072.591309
4051.394369	0.083533	0.173011	1151.947388
4051.395278	0.083507	0.173011	1227.855347
4051.396176	0.083555	0.173011	1302.887451
4051.397108	0.083613	0.173011	1380.815063
4051.398013	0.083558	0.173011	1456.435425
4051.398923	0.083602	0.173011	1532.513550
4051.399818	0.083551	0.173011	1607.291748
4051.400765	0.083602	0.173011	1686.463135
4052.384209	0.865807	0.184742	383.552460
4052.385103	0.601077	0.184742	920.915039
4052.386072	0.088484	0.184742	1006.655945
4052.386971	0.083503	0.184742	1081.725464
4052.387865	0.083573	0.184742	1156.439697
4052.388782	0.083584	0.184742	1233.086182
4052.389697	0.083654	0.184742	1309.629150
4052.390599	0.083562	0.184742	1385.002075
4052.391492	0.083558	0.184742	1459.619629
4052.392425	0.083573	0.184742	1537.593262
4052.393332	0.083595	0.184742	1613.413940
4052.394239	0.083558	0.184742	1689.201416
4053.428428	0.868846	0.180125	384.030151
4053.429400	0.523264	0.180125	892.642822
4053.430311	0.088488	0.180125	973.255005
4053.431207	0.083547	0.180125	1048.113403
4053.432148	0.083577	0.180125	1126.759033
4053.433051	0.083635	0.180125	1202.281616
4053.433959	0.083551	0.180125	1278.145996
4053.434850	0.083606	0.180125	1352.638916
4053.435787	0.083639	0.180125	1431.008545
4053.436691	0.083584	0.180125	1506.568481
4053.437590	0.083635	0.180125	1581.756592
4053.438480	0.083595	0.180125	1656.156128
4054.432224	0.896854	0.179344	409.862366
4054.433168	0.524374	0.179344	904.871216
4054.434057	0.088986	0.179344	983.979431
4054.435014	0.083456	0.179344	1063.846680
4054.435947	0.083518	0.179344	1141.769043
4054.436846	0.083610	0.179344	1216.934082
4054.437773	0.083540	0.179344	1294.375732
4054.438707	0.083551	0.179344	1372.412354
4054.439622	0.083536	0.179344	1448.848145
4054.440513	0.083588	0.179344	1523.324707
4054.441443	0.083562	0.179344	1601.037354
4054.442376	0.083591	0.179344	1679.028076
4055.467741	0.866792	0.180218	386.589203
4055.468649	0.591097	0.180218	923.305664
4055.469540	0.090941	0.180218	1004.334229
4055.470507	0.083551	0.180218	1085.128052
4055.471425	0.083511	0.180218	1161.790894
4055.472321	0.083551	0.180218	1236.652588
4055.473240	0.083529	0.180218	1313.415771
4055.474165	0.083500	0.180218	1390.653076
4055.475077	0.083540	0.180218	1466.841553
4055.475965	0.083580	0.180218	1541.060913
4055.476900	0.083584	0.180218	1619.211914
4055.477814	0.083584	0.180218	1695.607666
4056.477904	0.862914	0.179199	383.133759
4056.478797	0.608265	0.179199	926.314819
4056.479764	0.088762	0.179199	1012.147888
4056.480665	0.083448	0.179199	1087.334961
4056.481588	0.083555	0.179199	1164.455933
4056.482480	0.083555	0.179199	1238.986694
4056.483419	0.083518	0.179199	1317.410156
4056.484325	0.083470	0.179199	1393.034424
4056.485216	0.083580	0.179199	1467.504517
4056.486149	0.083558	0.179199	1545.464478
4056.487055	0.083507	0.179199	1621.121948
4056.487975	0.083525	0.179199	1697.965332
4057.509617	0.904600	0.178445	430.589417
4057.510538	0.535001	0.178445	923.325562
4057.511431	0.089030	0.178445	1002.828918
4057.512378	0.083610	0.178445	1082.007202
4057.513280	0.083500	0.178445	1157.323975
4057.514181	0.083569	0.178445	1232.619995
4057.515065	0.083489	0.178445	1306.424072
4057.516000	0.083595	0.178445	1384.585327
4057.516906	0.083544	0.178445	1460.275879
4057.517794	0.083573	0.178445	1534.488647
4057.518716	0.083602	0.178445	1611.569946
4057.519643	0.083599	0.178445	1689.065918
4058.522838	0.871707	0.180415	389.652832
4058.523747	0.588783	0.180415	924.856567
4058.524632	0.090956	0.180415	1005.352478
4058.525584	0.083613	0.180415	1084.952271
4058.526495	0.083496	0.180415	1161.017212
4058.527384	0.083496	0.180415	1235.245239
4058.528322	0.083613	0.180415	1313.674561
4058.529230	0.083606	0.180415	1389.588745
4058.530130	0.083500	0.180415	1464.738525
4058.531021	0.083551	0.180415	1539.182495
4058.531955	0.083595	0.180415	1617.260254
4058.532857	0.083588	0.180415	1692.656250
4059.552230	0.880723	0.177704	401.609558
4059.553127	0.584553	0.177704	925.953735
4059.554059	0.089590	0.177704	1009.451477
4059.554985	0.083412	0.177704	1086.690918
4059.555899	0.083555	0.177704	1163.059937
4059.556799	0.083412	0.177704	1238.130615
4059.557745	0.083485	0.177704	1317.107544
4059.558684	0.083555	0.177704	1395.565430
4059.559584	0.083566	0.177704	1470.774536
4059.560497	0.083525	0.177704	1547.033203
4059.561434	0.083544	0.177704	1625.313599
4059.562358	0.083500	0.177704	1702.467407
4060.566216	0.856018	0.181197	374.935913
4060.567166	0.554220	0.181197	901.444885
4060.568106	0.087971	0.181197	984.137817
4060.569019	0.083481	0.181197	1060.356323
4060.569908	0.083459	0.181197	1134.551758
4060.570857	0.083536	0.181197	1213.827759
4060.571792	0.083599	0.181197	1291.992432
4060.572691	0.083555	0.181197	1367.108154
4060.573614	0.083478	0.181197	1444.158203
4060.574544	0.083580	0.181197	1521.887939
4060.575457	0.083514	0.181197	1598.136597
4060.576350	0.083529	0.181197	1672.728027
4061.595345	0.861500	0.177023	381.644592
4061.596341	0.491283	0.177023	870.962402
4061.597248	0.087572	0.177023	950.390198
4061.598170	0.083459	0.177023	1027.339844
4061.599057	0.083445	0.177023	1101.355469
4061.600001	0.083467	0.177023	1180.148071
4061.600910	0.083481	0.177023	1256.032715
4061.601811	0.083478	0.177023	1331.246216
4061.602745	0.083507	0.177023	1409.241821
4061.603656	0.083467	0.177023	1485.280029
4061.604572	0.083481	0.177023	1561.749023
4061.605472	0.083452	0.177023	1636.855957
4062.609130	0.890109	0.181837	408.559875
4062.610045	0.551353	0.181837	913.047485
4062.610975	0.088451	0.181837	995.306885
4062.611869	0.083511	0.181837	1069.965454
4062.612832	0.083533	0.181837	1150.407471
4062.613729	0.083540	0.181837	1225.342896
4062.614620	0.083529	0.181837	1299.767334
4062.615555	0.083555	0.181837	1377.890991
4062.616466	0.083514	0.181837	1453.972656
4062.617380	0.083500	0.181837	1530.291382
4062.618281	0.083624	0.181837	1605.636841
4062.619204	0.083511	0.181837	1682.717285
4063.639000	0.868689	0.175469	387.435303
4063.639902	0.596880	0.175469	925.820984
4063.640788	0.091498	0.175469	1006.888062
4063.641744	0.083672	0.175469	1086.878418
4063.642655	0.083569	0.175469	1163.010132
4063.643552	0.083621	0.175469	1238.017822
4063.644477	0.083705	0.175469	1315.444824
4063.645378	0.083679	0.175469	1390.839844
4063.646281	0.083522	0.175469	1466.260010
4063.647166	0.083624	0.175469	1540.267456
4063.648120	0.083635	0.175469	1620.055542
4063.649015	0.083558	0.175469	1694.840210
4064.652238	0.858333	0.183819	375.949646
4064.653136	0.602476	0.183819	916.972717
4064.654091	0.089469	0.183819	1002.415588
4064.655023	0.083401	0.183819	1080.145264
4064.655942	0.083496	0.183819	1156.878174
4064.656833	0.083599	0.183819	1231.364502
4064.657779	0.083595	0.183819	1310.445312
4064.658682	0.083566	0.183819	1385.905151
4064.659582	0.083588	0.183819	1461.134033
4064.660471	0.083533	0.183819	1535.394653
4064.661408	0.083632	0.183819	1613.757446
4064.662313	0.083588	0.183819	1689.404297
4065.682374	0.852854	0.174776	367.580048
4065.683316	0.562203	0.174776	897.175659
4065.684269	0.088488	0.174776	981.504272
4065.685189	0.083485	0.174776	1058.310547
4065.686081	0.083500	0.174776	1132.792358
4065.687026	0.083540	0.174776	1211.737671
4065.687968	0.083562	0.174776	1290.453125
4065.688861	0.083573	0.174776	1365.083862
4065.689775	0.083507	0.174776	1441.409302
4065.690707	0.083500	0.174776	1519.231079
4065.691625	0.083558	0.174776	1595.937622
4065.692520	0.083606	0.174776	1670.764893
4066.695372	0.863481	0.182792	379.068359
4066.696352	0.526410	0.182792	894.950073
4066.697279	0.087656	0.182792	976.207397
4066.698164	0.083474	0.182792	1050.082031
4066.699083	0.083533	0.182792	1126.848633
4066.700021	0.083507	0.182792	1205.178223
4066.700944	0.083489	0.182792	1282.238403
4066.701837	0.083522	0.182792	1356.823242
4066.702782	0.083500	0.182792	1435.730469
4066.703707	0.083533	0.182792	1512.998291
4066.704616	0.083555	0.182792	1588.949463
4066.705528	0.083507	0.182792	1665.107910
4067.725276	0.879818	0.178623	395.918152
4067.726198	0.555165	0.178623	907.780151
4067.727139	0.088195	0.178623	990.771240
4067.728030	0.083452	0.178623	1065.127075
4067.728986	0.083507	0.178623	1144.959839
4067.729880	0.083511	0.178623	1219.618408
4067.730769	0.083533	0.178623	1293.879028
4067.731702	0.083467	0.178623	1371.753540
4067.732603	0.083507	0.178623	1446.993408
4067.733514	0.083474	0.178623	1523.038330
4067.734412	0.083558	0.178623	1598.073730
4067.735341	0.083412	0.178623	1675.563354
4068.738773	0.871436	0.182953	388.660278
4068.739678	0.594891	0.182953	927.036987
4068.740565	0.091157	0.182953	1007.893433
4068.741545	0.083511	0.182953	1089.734009
4068.742444	0.083452	0.182953	1164.757446
4068.743336	0.083547	0.182953	1239.281738
4068.744250	0.083507	0.182953	1315.607178
4068.745170	0.083474	0.182953	1392.403320
4068.746069	0.083474	0.182953	1467.446533
4068.746957	0.083533	0.182953	1541.623535
4068.747887	0.083555	0.182953	1619.329346
4068.748797	0.083434	0.182953	1695.254150
4069.768143	0.861277	0.176810	378.961823
4069.769051	0.600370	0.176810	924.097656
4069.769938	0.091348	0.176810	1005.123047
4069.770900	0.083463	0.176810	1085.414551
4069.771803	0.083459	0.176810	1160.778442
4069.772699	0.083500	0.176810	1235.594238
4069.773585	0.083496	0.176810	1309.571777
4069.774525	0.083573	0.176810	1388.130371
4069.775441	0.083547	0.176810	1464.659790
4069.776338	0.083470	0.176810	1539.532837
4069.777272	0.083525	0.176810	1617.545532
4069.778180	0.083606	0.176810	1693.459717
4070.781648	0.867173	0.182192	383.290405
4070.782566	0.581785	0.182192	917.368713
4070.783457	0.090718	0.182192	998.198242
4070.784408	0.083540	0.182192	1077.644775
4070.785316	0.083540	0.182192	1153.499146
4070.786211	0.083507	0.182192	1228.238037
4070.787148	0.083599	0.182192	1306.569946
4070.788057	0.083489	0.182192	1382.461182
4070.788954	0.083430	0.182192	1457.298096
4070.789848	0.083525	0.182192	1531.969849
4070.790783	0.083555	0.182192	1610.093506
4070.791686	0.083555	0.182192	1685.543335
4071.811531	0.857047	0.180492	375.386658
4071.812470	0.588439	0.180492	927.930664
4071.813408	0.088513	0.180492	1010.956055
4071.814337	0.083478	0.180492	1088.506958
4071.815231	0.083569	0.180492	1163.217896
4071.816147	0.083478	0.180492	1239.683594
4071.817092	0.083547	0.180492	1318.635864
4071.818015	0.083500	0.180492	1395.706177
4071.818903	0.083588	0.180492	1469.932007
4071.819849	0.083595	0.180492	1549.012817
4071.820789	0.083503	0.180492	1627.505981
4071.821680	0.083525	0.180492	1701.927124
4072.824529	0.866426	0.181825	384.693054
4072.825503	0.533987	0.181825	904.796204
4072.826432	0.087433	0.181825	986.021362
4072.827327	0.083459	0.181825	1060.717529
4072.828246	0.083514	0.181825	1137.467285
4072.829181	0.083511	0.181825	1215.549805
4072.830108	0.083481	0.181825	1292.937134
4072.831003	0.083518	0.181825	1367.685791
4072.831951	0.083456	0.181825	1446.801880
4072.832874	0.083492	0.181825	1523.865356
4072.833793	0.083503	0.181825	1600.604980
4072.834687	0.083511	0.181825	1675.263550
4073.855460	0.872648	0.181229	400.545288
4073.856367	0.576405	0.181229	923.344666
4073.857252	0.090436	0.181229	1003.380371
4073.858197	0.083463	0.181229	1082.253052
4073.859098	0.083514	0.181229	1157.499512
4073.859989	0.083467	0.181229	1231.868408
4073.860918	0.083540	0.181229	1309.477051
4073.861838	0.083555	0.181229	1386.347412
4073.862740	0.083489	0.181229	1461.654297
4073.863628	0.083584	0.181229	1535.876831
4073.864570	0.083624	0.181229	1614.650879
4073.865471	0.083569	0.181229	1689.946899
4074.865358	0.863716	0.182603	384.353516
4074.866263	0.592624	0.182603	920.678650
4074.867211	0.090319	0.182603	1006.300659
4074.868126	0.083470	0.182603	1082.676147
4074.869020	0.083588	0.182603	1157.403564
4074.869909	0.083610	0.182603	1231.732544
4074.870850	0.083661	0.182603	1310.457397
4074.871748	0.083525	0.182603	1385.463135
4074.872652	0.083613	0.182603	1461.049561
4074.873543	0.083569	0.182603	1535.509888
4074.874486	0.083595	0.182603	1614.339966
4074.875389	0.083522	0.182603	1689.760132
4075.901900	0.859314	0.178413	376.379517
4075.902793	0.606350	0.178413	917.850098
4075.903769	0.088389	0.178413	1004.117432
4075.904681	0.083452	0.178413	1080.225830
4075.905577	0.083503	0.178413	1155.044922
4075.906507	0.083459	0.178413	1232.662231
4075.907414	0.083456	0.178413	1308.356689
4075.908318	0.083514	0.178413	1383.853760
4075.909211	0.083492	0.178413	1458.412476
4075.910151	0.083588	0.178413	1536.984863
4075.911055	0.083577	0.178413	1612.538208
4075.911960	0.083496	0.178413	1688.102173
4076.905167	0.858911	0.185092	378.779785
4076.906065	0.602153	0.185092	919.513428
4076.907017	0.089198	0.185092	1004.429932
4076.907921	0.083405	0.185092	1079.827637
4076.908812	0.083544	0.185092	1154.265015
4076.909746	0.083577	0.185092	1232.325562
4076.910645	0.083584	0.185092	1307.467529
4076.911554	0.083419	0.185092	1383.295532
4076.912449	0.083489	0.185092	1458.017944
4076.913378	0.083547	0.185092	1535.633423
4076.914279	0.083522	0.185092	1610.886475
4076.915184	0.083529	0.185092	1686.480225
4077.949146	0.876541	0.178083	391.813629
4077.950121	0.495802	0.178083	875.220581
4077.951035	0.087524	0.178083	955.217896
4077.951924	0.083416	0.178083	1029.374268
4077.952884	0.083459	0.178083	1109.495361
4077.953815	0.083485	0.178083	1187.219971
4077.954715	0.083566	0.178083	1262.429077
4077.955634	0.083467	0.178083	1339.135010
4077.956575	0.083500	0.178083	1417.708252
4077.957490	0.083485	0.178083	1494.097168
4077.958380	0.083474	0.178083	1568.389160
4077.959312	0.083470	0.178083	1646.183594
4078.945264	0.907972	0.188428	434.010803
4078.946207	0.495439	0.188428	901.210205
4078.947132	0.087404	0.188428	982.058472
4078.948023	0.083456	0.188428	1056.417603
4078.948978	0.083522	0.188428	1136.180908
4078.949911	0.083478	0.188428	1214.065674
4078.950805	0.083536	0.188428	1288.747192
4078.951737	0.083551	0.188428	1366.616699
4078.952675	0.083481	0.188428	1444.922241
4078.953587	0.083514	0.188428	1521.087402
4078.954488	0.083525	0.188428	1596.343750
4078.955418	0.083555	0.188428	1674.049561
4079.997391	0.858860	0.174047	379.616058
4079.998373	0.539517	0.174047	909.421387
4079.999298	0.087737	0.174047	990.577942
4080.000189	0.083445	0.174047	1064.927246
4080.001110	0.083496	0.174047	1141.827148
4080.002031	0.083573	0.174047	1218.797852
4080.002965	0.083485	0.174047	1296.772949
4080.003876	0.083624	0.174047	1372.954712
4080.004763	0.083529	0.174047	1447.044922
4080.005719	0.083544	0.174047	1526.912720
4080.006661	0.083445	0.174047	1605.517700
4080.007561	0.083459	0.174047	1680.631226
4080.985067	0.880444	0.190687	417.330627
4080.986006	0.518009	0.190687	903.741089
4080.986893	0.088630	0.190687	982.356201
4080.987810	0.083350	0.190687	1058.787842
4080.988747	0.083434	0.190687	1136.965332
4080.989661	0.083423	0.190687	1213.213867
4080.990551	0.083459	0.190687	1287.492798
4080.991489	0.083441	0.190687	1365.760620
4080.992404	0.083445	0.190687	1442.112671
4080.993321	0.083423	0.190687	1518.611450
4080.994209	0.083445	0.190687	1592.710449
4080.995164	0.083467	0.190687	1672.421265
4082.041318	0.874724	0.171460	397.999451
4082.042224	0.583718	0.171460	926.848206
4082.043113	0.090553	0.171460	1007.349792
4082.044052	0.083467	0.171460	1085.725098
4082.044963	0.083438	0.171460	1161.736694
4082.045881	0.083500	0.171460	1238.389404
4082.046779	0.083540	0.171460	1313.408325
4082.047728	0.083423	0.171460	1392.576660
4082.048648	0.083492	0.171460	1469.389648
4082.049577	0.083456	0.171460	1546.920044
4082.050466	0.083452	0.171460	1621.109009
4082.051425	0.083423	0.171460	1701.111572
4083.028946	0.872289	0.193801	390.785400
4083.029843	0.597382	0.193801	926.636719
4083.030817	0.088792	0.193801	1013.119629
4083.031740	0.083492	0.193801	1090.183105
4083.032629	0.083511	0.193801	1164.424194
4083.033564	0.083584	0.193801	1242.575195
4083.034466	0.083525	0.193801	1317.915039
4083.035374	0.083562	0.193801	1393.789307
4083.036268	0.083496	0.193801	1468.434814
4083.037196	0.083474	0.193801	1545.898804
4083.038099	0.083467	0.193801	1621.269287
4083.039012	0.083507	0.193801	1697.511230
4084.081618	0.871157	0.172371	389.407288
4084.082516	0.595840	0.172371	924.471497
4084.083453	0.090348	0.172371	1009.127502
4084.084363	0.083416	0.172371	1085.035645
4084.085285	0.083503	0.172371	1162.025757
4084.086175	0.083533	0.172371	1236.369873
4084.087122	0.083584	0.172371	1315.523926
4084.088007	0.083511	0.172371	1389.430908
4084.088897	0.083547	0.172371	1463.788086
4084.089814	0.083599	0.172371	1540.447998
4084.090740	0.083555	0.172371	1617.819580
4084.091637	0.083562	0.172371	1692.774658
4085.077204	0.869528	0.192118	389.548340
4085.078104	0.596895	0.192118	926.753418
4085.079037	0.090864	0.192118	1011.529785
4085.079945	0.083595	0.192118	1087.434082
4085.080846	0.083573	0.192118	1162.733398
4085.081732	0.083533	0.192118	1236.743408
4085.082683	0.083562	0.192118	1316.210937
4085.083585	0.083540	0.192118	1391.564087
4085.084488	0.083580	0.192118	1467.037109
4085.085376	0.083599	0.192118	1541.272705
4085.086307	0.083606	0.192118	1619.109863
4085.087217	0.083522	0.192118	1695.114624
4086.119135	0.864906	0.173962	389.207703
4086.120040	0.590566	0.173962	923.670288
4086.120931	0.090945	0.173962	1004.702148
4086.121889	0.083379	0.173962	1084.579102
4086.122835	0.083522	0.173962	1163.590698
4086.123737	0.083525	0.173962	1238.930664
4086.124648	0.083540	0.173962	1315.035645
4086.125582	0.083518	0.173962	1393.041504
4086.126520	0.083529	0.173962	1471.391724
4086.127418	0.083588	0.173962	1546.453369
4086.128341	0.083555	0.173962	1623.574341
4086.129272	0.083492	0.173962	1701.305786
4087.126479	0.858241	0.189471	378.484253
4087.127447	0.528563	0.189471	890.133423
4087.128385	0.087759	0.189471	972.451172
4087.129293	0.083577	0.189471	1048.338745
4087.130190	0.083602	0.189471	1123.329956
4087.131105	0.083595	0.189471	1199.819336
4087.132040	0.083562	0.189471	1277.949829
4087.132949	0.083580	0.189471	1353.924316
4087.133837	0.083558	0.189471	1428.124146
4087.134789	0.083569	0.189471	1507.682129
4087.135722	0.083573	0.189471	1585.655762
4087.136617	0.083566	0.189471	1660.447021
4088.158929	0.857340	0.176182	372.942932
4088.159867	0.587501	0.176182	924.019104
4088.160786	0.088883	0.176182	1005.702637
4088.161718	0.083511	0.176182	1083.534668
4088.162616	0.083540	0.176182	1158.553589
4088.163584	0.083577	0.176182	1239.455811
4088.164484	0.083602	0.176182	1314.697876
4088.165409	0.083599	0.176182	1392.026611
4088.166299	0.083599	0.176182	1466.429443
4088.167248	0.083573	0.176182	1545.740234
4088.168168	0.083639	0.176182	1622.687988
4088.169055	0.083599	0.176182	1696.839966
4089.172226	0.920112	0.187461	449.014832
4089.173153	0.504232	0.187461	916.438049
4089.174054	0.088213	0.187461	995.917847
4089.174947	0.083514	0.187461	1070.496216
4089.175888	0.083551	0.187461	1149.117676
4089.176800	0.083536	0.187461	1225.302856
4089.177700	0.083558	0.187461	1300.505371
4089.178588	0.083584	0.187461	1374.727905
4089.179535	0.083635	0.187461	1453.930542
4089.180436	0.083518	0.187461	1529.180298
4089.181324	0.083533	0.187461	1603.357300
4089.182247	0.083485	0.187461	1680.414062
4090.200774	0.854121	0.180665	372.396790
4090.201716	0.580741	0.180665	919.454773
4090.202640	0.088575	0.180665	1001.298462
4090.203547	0.083438	0.180665	1076.976318
4090.204449	0.083551	0.180665	1152.339355
4090.205387	0.083610	0.180665	1230.765137
4090.206288	0.083562	0.180665	1306.054565
4090.207192	0.083558	0.180665	1381.591309
4090.208079	0.083613	0.180665	1455.756348
4090.209034	0.083643	0.180665	1535.635010
4090.209931	0.083496	0.180665	1610.531006
4090.210822	0.083547	0.180665	1684.971680
4091.214337	0.895562	0.184395	433.451782
4091.215278	0.514655	0.184395	917.741699
4091.216171	0.088293	0.184395	996.587769
4091.217084	0.083489	0.184395	1072.812988
4091.218025	0.083540	0.184395	1151.424194
4091.218955	0.083514	0.184395	1229.092529
4091.219853	0.083580	0.184395	1304.147705
4091.220771	0.083481	0.184395	1380.783691
4091.221710	0.083533	0.184395	1459.220947
4091.222625	0.083573	0.184395	1535.690186
4091.223516	0.083511	0.184395	1610.098267
4091.224457	0.083555	0.184395	1688.723267
4092.244711	0.879657	0.183094	403.762543
4092.245604	0.586791	0.183094	927.766724
4092.246545	0.089070	0.183094	1011.581421
4092.247463	0.083478	0.183094	1088.213989
4092.248388	0.083503	0.183094	1165.454590
4092.249286	0.083470	0.183094	1240.411011
4092.250227	0.083489	0.183094	1318.973999
4092.251147	0.083540	0.183094	1395.830811
4092.252042	0.083507	0.183094	1470.569702
4092.252975	0.083533	0.183094	1548.505737
4092.253887	0.083456	0.183094	1624.617432
4092.254808	0.083467	0.183094	1701.490356
4093.254600	0.855073	0.185326	374.522064
4093.255551	0.544666	0.185326	892.499023
4093.256471	0.088682	0.185326	974.086121
4093.257374	0.083441	0.185326	1049.433472
4093.258261	0.083529	0.185326	1123.523682
4093.259210	0.083610	0.185326	1202.869263
4093.260105	0.083467	0.185326	1277.572021
4093.260998	0.083573	0.185326	1352.202759
4093.261935	0.083584	0.185326	1430.520996
4093.262842	0.083500	0.185326	1506.255249
4093.263740	0.083533	0.185326	1581.267578
4093.264630	0.083540	0.185326	1655.618164
4094.291154	0.877335	0.181886	392.168823
4094.292128	0.503394	0.181886	882.474182
4094.293039	0.087847	0.181886	962.502502
4094.293935	0.083434	0.181886	1037.259277
4094.294875	0.083566	0.181886	1115.811035
4094.295771	0.083529	0.181886	1190.653076
4094.296668	0.083507	0.181886	1265.558960
4094.297554	0.083478	0.181886	1339.520264
4094.298493	0.083536	0.181886	1417.960937
4094.299403	0.083529	0.181886	1493.972412
4094.300301	0.083522	0.181886	1568.974976
4094.301215	0.083518	0.181886	1645.310547
4095.295214	0.890695	0.187501	415.063660
4095.296120	0.561222	0.187501	923.530762
4095.297057	0.089180	0.187501	1007.092102
4095.298000	0.083379	0.187501	1085.718384
4095.298921	0.083514	0.187501	1162.635132
4095.299808	0.083558	0.187501	1236.751343
4095.300745	0.083452	0.187501	1314.946045
4095.301687	0.083555	0.187501	1393.654541
4095.302585	0.083621	0.187501	1468.745850
4095.303505	0.083518	0.187501	1545.582520
4095.304442	0.083507	0.187501	1623.828613
4095.305356	0.083529	0.187501	1700.174194
4096.337884	0.870114	0.182442	388.940765
4096.338780	0.595020	0.182442	922.078247
4096.339738	0.088945	0.182442	1007.287842
4096.340656	0.083489	0.182442	1083.930542
4096.341576	0.083496	0.182442	1160.746948
4096.342461	0.083448	0.182442	1234.598877
4096.343393	0.083511	0.182442	1312.430908
4096.344334	0.083540	0.182442	1391.042114
4096.345232	0.083566	0.182442	1466.084106
4096.346152	0.083474	0.182442	1542.880249
4096.347079	0.083500	0.182442	1620.284546
4096.348018	0.083503	0.182442	1698.694214
4097.334996	0.878760	0.186075	393.684387
4097.335992	0.488632	0.186075	880.361450
4097.336889	0.087477	0.186075	958.828125
4097.337777	0.083478	0.186075	1032.956421
4097.338707	0.083529	0.186075	1110.638428
4097.339614	0.083551	0.186075	1186.419189
4097.340531	0.083536	0.186075	1263.022095
4097.341422	0.083584	0.186075	1337.495483
4097.342370	0.083522	0.186075	1416.674072
4097.343272	0.083470	0.186075	1491.964478
4097.344192	0.083507	0.186075	1568.791016
4097.345083	0.083580	0.186075	1643.261108
4098.383563	0.861742	0.177660	380.028198
4098.384457	0.590958	0.177660	908.344910
4098.385424	0.088462	0.177660	993.887573
4098.386330	0.083448	0.177660	1069.491943
4098.387224	0.083478	0.177660	1144.121094
4098.388157	0.083566	0.177660	1222.087891
4098.389076	0.083489	0.177660	1298.814087
4098.389982	0.083452	0.177660	1374.421753
4098.390869	0.083500	0.177660	1448.486084
4098.391809	0.083577	0.177660	1527.048096
4098.392726	0.083503	0.177660	1603.620728
4098.393627	0.083525	0.177660	1678.877075
4099.377103	0.863353	0.189797	381.602173
4099.378072	0.526868	0.189797	892.136963
4099.378980	0.088542	0.189797	972.533569
4099.379876	0.083577	0.189797	1047.418213
4099.380802	0.083500	0.189797	1124.739014
4099.381710	0.083551	0.189797	1200.603394
4099.382617	0.083507	0.189797	1276.344360
4099.383511	0.083445	0.189797	1350.944092
4099.384445	0.083555	0.189797	1428.984131
4099.385352	0.083536	0.189797	1504.751587
4099.386251	0.083518	0.189797	1579.834351
4099.387142	0.083492	0.189797	1654.226074
4100.428748	0.858179	0.177201	374.165894
4100.429696	0.553737	0.177201	899.108154
4100.430643	0.088363	0.177201	982.787964
4100.431562	0.083558	0.177201	1059.578125
4100.432449	0.083522	0.177201	1133.661865
4100.433368	0.083525	0.177201	1210.421753
4100.434306	0.083529	0.177201	1288.771973
4100.435223	0.083580	0.177201	1365.415161
4100.436121	0.083492	0.177201	1440.391357
4100.437059	0.083485	0.177201	1518.700439
4100.437999	0.083588	0.177201	1597.272827
4100.438897	0.083492	0.177201	1672.249023
4101.419505	0.877397	0.190917	411.499390
4101.420444	0.524513	0.190917	904.017090
4101.421344	0.088403	0.190917	983.580078
4101.422265	0.083452	0.190917	1060.439453
4101.423206	0.083496	0.190917	1139.009277
4101.424123	0.083518	0.190917	1215.595337
4101.425013	0.083584	0.190917	1289.985107
4101.425967	0.083481	0.190917	1369.626465
4101.426903	0.083511	0.190917	1447.792480
4101.427802	0.083529	0.190917	1522.885132
4101.428713	0.083551	0.190917	1599.000122
4101.429646	0.083584	0.190917	1676.984009
4102.473428	0.861420	0.175887	379.024658
4102.474322	0.601725	0.175887	916.966675
4102.475263	0.089440	0.175887	1001.129456
4102.476177	0.083423	0.175887	1077.377930
4102.477068	0.083459	0.175887	1151.740356
4102.477988	0.083485	0.175887	1228.546631
4102.478927	0.083459	0.175887	1306.915039
4102.479831	0.083478	0.175887	1382.378906
4102.480720	0.083529	0.175887	1456.636230
4102.481666	0.083478	0.175887	1535.606201
4102.482571	0.083459	0.175887	1611.136963
4102.483492	0.083573	0.175887	1688.107666
4103.461593	0.877203	0.192013	389.478271
4103.462512	0.571714	0.192013	914.883301
4103.463402	0.090040	0.192013	995.019165
4103.464339	0.083540	0.192013	1073.296143
4103.465262	0.083507	0.192013	1150.373169
4103.466164	0.083562	0.192013	1225.746094
4103.467050	0.083481	0.192013	1299.710693
4103.467994	0.083569	0.192013	1378.600098
4103.468902	0.083500	0.192013	1454.417847
4103.469799	0.083500	0.192013	1529.317139
4103.470687	0.083558	0.192013	1603.516968
4103.471630	0.083529	0.192013	1682.284912
4104.516291	0.853286	0.176653	367.766296
4104.517278	0.524553	0.176653	885.500366
4104.518188	0.088136	0.176653	965.704102
4104.519097	0.083529	0.176653	1041.631958
4104.519989	0.083577	0.176653	1116.182373
4104.520944	0.083613	0.176653	1196.033081
4104.521852	0.083430	0.176653	1271.787720
4104.522743	0.083646	0.176653	1346.316528
4104.523684	0.083562	0.176653	1424.948364
4104.524585	0.083555	0.176653	1500.231079
4104.525477	0.083533	0.176653	1574.742310
4104.526365	0.083544	0.176653	1648.929077
4105.504732	0.863276	0.192851	384.157990
4105.505628	0.586996	0.192851	910.106201
4105.506586	0.088846	0.192851	995.221069
4105.507515	0.083478	0.192851	1072.771973
4105.508412	0.083518	0.192851	1147.687622
4105.509331	0.083522	0.192851	1224.444092
4105.510273	0.083573	0.192851	1303.169800
4105.511186	0.083547	0.192851	1379.448486
4105.512078	0.083456	0.192851	1453.891113
4105.513023	0.083518	0.192851	1532.815674
4105.513957	0.083503	0.192851	1610.807861
4105.514856	0.083544	0.192851	1685.913696
4106.560211	0.870352	0.175126	390.787842
4106.561107	0.597997	0.175126	926.593018
4106.562035	0.090256	0.175126	1010.350891
4106.562975	0.083474	0.175126	1088.816528
4106.563888	0.083547	0.175126	1165.095215
4106.564778	0.083481	0.175126	1239.393677
4106.565727	0.083518	0.175126	1318.652344
4106.566664	0.083500	0.175126	1396.891602
4106.567562	0.083584	0.175126	1471.950073
4106.568484	0.083474	0.175126	1548.913208
4106.569432	0.083485	0.175126	1628.057129
4106.570342	0.083643	0.175126	1704.171875
4107.547900	0.908199	0.192609	437.752136
4107.548814	0.536316	0.192609	927.944885
4107.549743	0.088304	0.192609	1009.979736
4107.550632	0.083416	0.192609	1084.136108
4107.551576	0.083416	0.192609	1162.880371
4107.552487	0.083463	0.192609	1238.915283
4107.553378	0.083459	0.192609	1313.277710
4107.554304	0.083438	0.192609	1390.540894
4107.555218	0.083463	0.192609	1466.826172
4107.556138	0.083375	0.192609	1543.531372
4107.557033	0.083438	0.192609	1618.207886
4107.557978	0.083401	0.192609	1697.021729
4108.603086	0.873849	0.174147	387.988892
4108.604058	0.513860	0.174147	887.460693
4108.604970	0.087964	0.174147	967.683716
4108.605869	0.083456	0.174147	1042.710449
4108.606805	0.083544	0.174147	1120.907349
4108.607704	0.083470	0.174147	1195.947266
4108.608599	0.083489	0.174147	1270.669678
4108.609487	0.083503	0.174147	1344.820679
4108.610418	0.083580	0.174147	1422.633911
4108.611331	0.083580	0.174147	1498.942749
4108.612226	0.083577	0.174147	1573.743896
4108.613148	0.083503	0.174147	1650.734009
4109.591249	0.866678	0.192722	386.538605
4109.592153	0.593547	0.192722	923.105347
4109.593084	0.090853	0.192722	1007.689758
4109.593990	0.083441	0.192722	1083.287476
4109.594903	0.083529	0.192722	1159.549561
4109.595793	0.083599	0.192722	1233.952393
4109.596714	0.083544	0.192722	1310.896118
4109.597614	0.083621	0.192722	1386.154663
4109.598516	0.083569	0.192722	1461.534180
4109.599404	0.083518	0.192722	1535.698242
4109.600351	0.083569	0.192722	1614.838379
4109.601256	0.083621	0.192722	1690.515015
4110.646003	0.875347	0.178953	411.412933
4110.646946	0.520349	0.178953	902.102173
4110.647849	0.088132	0.178953	981.685669
4110.648765	0.083419	0.178953	1058.097656
4110.649693	0.083481	0.178953	1135.568481
4110.650614	0.083452	0.178953	1212.427856
4110.651503	0.083489	0.178953	1286.649414
4110.652427	0.083503	0.178953	1363.806519
4110.653362	0.083416	0.178953	1441.800049
4110.654295	0.083478	0.178953	1519.684814
4110.655193	0.083503	0.178953	1594.670898
4110.656105	0.083452	0.178953	1670.779297
4111.635947	0.898744	0.191292	417.017151
4111.636883	0.530995	0.191292	914.028320
4111.637772	0.088960	0.191292	993.113708
4111.638722	0.083430	0.191292	1072.372314
4111.639653	0.083456	0.191292	1150.069702
4111.640541	0.083485	0.191292	1224.204468
4111.641466	0.083522	0.191292	1301.462036
4111.642403	0.083496	0.191292	1379.697876
4111.643317	0.083566	0.191292	1456.076904
4111.644216	0.083445	0.191292	1531.093750
4111.645160	0.083481	0.191292	1609.900269
4111.646096	0.083448	0.191292	1688.008057
4112.688352	0.874252	0.177761	396.910278
4112.689256	0.588329	0.177761	928.759521
4112.690143	0.090699	0.177761	1009.209961
4112.691093	0.083390	0.177761	1088.430420
4112.691996	0.083496	0.177761	1163.827393
4112.692886	0.083492	0.177761	1238.135620
4112.693826	0.083555	0.177761	1316.677002
4112.694732	0.083463	0.177761	1392.294556
4112.695651	0.083470	0.177761	1469.003906
4112.696537	0.083540	0.177761	1543.020386
4112.697488	0.083533	0.177761	1622.459961
4112.698387	0.083496	0.177761	1697.522949
4113.680348	0.872391	0.191767	388.214142
4113.681261	0.582631	0.191767	920.155884
4113.682153	0.090333	0.191767	1000.733154
4113.683072	0.083478	0.191767	1077.449219
4113.684007	0.083632	0.191767	1155.644775
4113.684915	0.083459	0.191767	1231.426025
4113.685805	0.083540	0.191767	1305.776611
4113.686744	0.083573	0.191767	1384.251709
4113.687653	0.083496	0.191767	1460.149658
4113.688549	0.083533	0.191767	1534.994995
4113.689442	0.083507	0.191767	1609.566772
4113.690377	0.083668	0.191767	1687.796509
4114.729189	0.877705	0.183545	408.132843
4114.730139	0.511458	0.183545	894.017517
4114.731059	0.087968	0.183545	974.947632
4114.731956	0.083492	0.183545	1049.840332
4114.732876	0.083591	0.183545	1126.744385
4114.733780	0.083566	0.183545	1202.287720
4114.734685	0.083536	0.183545	1277.888184
4114.735572	0.083555	0.183545	1352.001221
4114.736522	0.083621	0.183545	1431.440796
4114.737425	0.083602	0.183545	1506.933716
4114.738318	0.083566	0.183545	1581.557861
4114.739247	0.083599	0.183545	1659.220947
4115.726053	0.887388	0.187477	413.522675
4115.726964	0.559124	0.187477	922.884155
4115.727853	0.089901	0.187477	1002.806274
4115.728804	0.083361	0.187477	1082.082153
4115.729739	0.083525	0.187477	1160.178345
4115.730639	0.083485	0.187477	1235.314941
4115.731566	0.083547	0.187477	1312.763306
4115.732503	0.083467	0.187477	1390.971680
4115.733410	0.083551	0.187477	1466.752441
4115.734301	0.083419	0.187477	1541.078979
4115.735237	0.083467	0.187477	1619.203857
4115.736167	0.083503	0.187477	1696.862061
4116.769237	0.863639	0.186103	381.728394
4116.770130	0.597360	0.186103	915.170532
4116.771089	0.089333	0.186103	1000.841370
4116.772005	0.083357	0.186103	1077.196289
4116.772893	0.083584	0.186103	1151.418823
4116.773838	0.083518	0.186103	1230.343384
4116.774750	0.083492	0.186103	1306.488525
4116.775663	0.083485	0.186103	1382.710449
4116.776557	0.083558	0.186103	1457.411621
4116.777511	0.083544	0.186103	1537.112305
4116.778427	0.083507	0.186103	1613.604736
4116.779353	0.083507	0.186103	1690.932251
4117.771225	0.885344	0.186208	401.060944
4117.772170	0.533855	0.186208	905.553894
4117.773056	0.089150	0.186208	984.541138
4117.774015	0.083456	0.186208	1064.575195
4117.774916	0.083463	0.186208	1139.775513
4117.775804	0.083518	0.186208	1213.939575
4117.776744	0.083632	0.186208	1292.553223
4117.777654	0.083522	0.186208	1368.557983
4117.778574	0.083478	0.186208	1445.357544
4117.779469	0.083514	0.186208	1520.102905
4117.780408	0.083463	0.186208	1598.474731
4117.781313	0.083533	0.186208	1674.071777
4118.810597	0.893005	0.185721	417.033508
4118.811506	0.558025	0.185721	924.278198
4118.812445	0.088975	0.185721	1007.825378
4118.813344	0.083452	0.185721	1082.848877
4118.814246	0.083518	0.185721	1158.182129
4118.815136	0.083544	0.185721	1232.536011
4118.816078	0.083533	0.185721	1311.223877
4118.816977	0.083525	0.185721	1386.313232
4118.817877	0.083503	0.185721	1461.466309
4118.818793	0.083540	0.185721	1537.989014
4118.819714	0.083522	0.185721	1614.912476
4118.820623	0.083438	0.185721	1690.757202
4119.816906	0.855469	0.185205	374.695312
4119.817796	0.616128	0.185205	923.049133
4119.818760	0.089733	0.185205	1009.551453
4119.819685	0.083364	0.185205	1086.663330
4119.820579	0.083467	0.185205	1161.282593
4119.821503	0.083529	0.185205	1238.463379
4119.822431	0.083489	0.185205	1315.940918
4119.823347	0.083485	0.185205	1392.413330
4119.824246	0.083503	0.185205	1467.482910
4119.825180	0.083496	0.185205	1545.468262
4119.826108	0.083434	0.185205	1622.894897
4119.827028	0.083511	0.185205	1699.724731
4120.850414	0.876226	0.184846	411.825989
4120.851375	0.487852	0.184846	880.651367
4120.852304	0.087166	0.184846	961.628174
4120.853191	0.083496	0.184846	1035.689209
4120.854111	0.083544	0.184846	1112.549438
4120.855052	0.083511	0.184846	1191.133057
4120.855967	0.083518	0.184846	1267.552124
4120.856856	0.083533	0.184846	1341.812744
4120.857794	0.083500	0.184846	1420.135498
4120.858727	0.083463	0.184846	1498.006592
4120.859628	0.083511	0.184846	1573.249756
4120.860549	0.083485	0.184846	1650.139526
4121.863170	0.908745	0.187159	431.653931
4121.864096	0.517244	0.187159	910.621521
4121.865015	0.087916	0.187159	991.416565
4121.865904	0.083427	0.187159	1065.582764
4121.866870	0.083474	0.187159	1146.218750
4121.867772	0.083463	0.187159	1221.502441
4121.868661	0.083445	0.187159	1295.684937
4121.869625	0.083544	0.187159	1376.221069
4121.870530	0.083445	0.187159	1451.738647
4121.871448	0.083441	0.187159	1528.337646
4121.872333	0.083470	0.187159	1602.208984
4121.873267	0.083478	0.187159	1680.177246
4122.892490	0.861486	0.187646	378.192169
4122.893414	0.586794	0.187646	920.390259
4122.894308	0.090498	0.187646	1001.295532
4122.895247	0.083518	0.187646	1079.718994
4122.896151	0.083617	0.187646	1155.308716
4122.897048	0.083489	0.187646	1230.198120
4122.897938	0.083496	0.187646	1304.509644
4122.898877	0.083573	0.187646	1382.984741
4122.899782	0.083500	0.187646	1458.552002
4122.900686	0.083522	0.187646	1534.055664
4122.901573	0.083525	0.187646	1608.142700
4122.902517	0.083591	0.187646	1687.052856
4123.907532	0.869344	0.187280	385.119598
4123.908509	0.524454	0.187280	897.511475
4123.909458	0.087426	0.187280	980.478333
4123.910350	0.083551	0.187280	1055.005859
4123.911268	0.083503	0.187280	1131.661987
4123.912202	0.083536	0.187280	1209.684937
4123.913116	0.083558	0.187280	1286.057251
4123.914016	0.083610	0.187280	1361.305908
4123.914946	0.083533	0.187280	1438.991333
4123.915866	0.083518	0.187280	1515.828003
4123.916789	0.083496	0.187280	1592.894897
4123.917678	0.083511	0.187280	1667.135986
4124.935887	0.863599	0.181918	382.574188
4124.936864	0.544248	0.181918	914.304565
4124.937785	0.087986	0.181918	995.339539
4124.938702	0.083485	0.181918	1071.895386
4124.939596	0.083496	0.181918	1146.540894
4124.940521	0.083467	0.181918	1223.747681
4124.941450	0.083445	0.181918	1301.267944
4124.942364	0.083522	0.181918	1377.606812
4124.943251	0.083478	0.181918	1451.651611
4124.944200	0.083459	0.181918	1530.854614
4124.945142	0.083478	0.181918	1609.490723
4124.946042	0.083547	0.181918	1684.683350
4125.949655	0.870406	0.191078	389.942078
4125.950567	0.582177	0.191078	920.887024
4125.951457	0.090454	0.191078	1001.391174
4125.952398	0.083408	0.191078	1079.878296
4125.953312	0.083536	0.191078	1156.230591
4125.954216	0.083558	0.191078	1231.767334
4125.955104	0.083474	0.191078	1305.892334
4125.956043	0.083536	0.191078	1384.333008
4125.956943	0.083467	0.191078	1459.453125
4125.957856	0.083485	0.191078	1535.675049
4125.958751	0.083536	0.191078	1610.440063
4125.959702	0.083595	0.191078	1689.938843
4126.981874	0.894880	0.178312	419.698883
4126.982801	0.539978	0.178312	920.258545
4126.983697	0.089055	0.178312	1000.052002
4126.984602	0.083434	0.178312	1075.559570
4126.985531	0.083547	0.178312	1153.175049
4126.986445	0.083489	0.178312	1229.483765
4126.987343	0.083562	0.178312	1304.522461
4126.988279	0.083551	0.178312	1382.726196
4126.989184	0.083555	0.178312	1458.343140
4126.990086	0.083547	0.178312	1533.702881
4126.990975	0.083514	0.178312	1607.947144
4126.991923	0.083591	0.178312	1687.191650
4127.988942	0.861434	0.194704	377.308228
4127.989842	0.601637	0.194704	918.781555
4127.990786	0.089374	0.194704	1003.150391
4127.991716	0.083379	0.194704	1080.692749
4127.992632	0.083459	0.194704	1157.141602
4127.993520	0.083463	0.194704	1231.256836
4127.994469	0.083485	0.194704	1310.484253
4127.995401	0.083412	0.194704	1388.224121
4127.996301	0.083525	0.194704	1463.396973
4127.997221	0.083492	0.194704	1540.209961
4127.998167	0.083503	0.194704	1619.204224
4127.999086	0.083529	0.194704	1695.967407
4129.029630	0.883945	0.176218	432.249237
4129.030577	0.495930	0.176218	901.895142
4129.031491	0.087341	0.176218	981.725098
4129.032390	0.083463	0.176218	1056.758423
4129.033334	0.083441	0.176218	1135.526855
4129.034274	0.083478	0.176218	1213.995972
4129.035174	0.083540	0.176218	1289.182007
4129.036089	0.083500	0.176218	1365.584229
4129.037028	0.083430	0.176218	1443.925171
4129.037938	0.083522	0.176218	1519.929932
4129.038831	0.083558	0.176218	1594.547485
4129.039770	0.083496	0.176218	1672.950317
4130.026705	0.869019	0.199050	387.582275
4130.027609	0.597253	0.199050	927.499390
4130.028495	0.091289	0.199050	1008.381470
4130.029461	0.083500	0.199050	1089.042236
4130.030367	0.083518	0.199050	1164.709595
4130.031256	0.083536	0.199050	1238.973389
4130.032210	0.083503	0.199050	1318.635620
4130.033123	0.083533	0.199050	1394.901001
4130.034045	0.083533	0.199050	1471.918213
4130.034934	0.083558	0.199050	1546.201538
4130.035885	0.083584	0.199050	1625.689941
4130.036787	0.083562	0.199050	1701.062866
4131.077066	0.858402	0.173035	376.838501
4131.078044	0.509835	0.173035	875.457275
4131.078942	0.088224	0.173035	954.682312
4131.079840	0.083489	0.173035	1029.655273
4131.080731	0.083492	0.173035	1104.046997
4131.081678	0.083547	0.173035	1183.166382
4131.082575	0.083452	0.173035	1258.022949
4131.083471	0.083522	0.173035	1332.858398
4131.084394	0.083584	0.173035	1410.006470
4131.085307	0.083580	0.173035	1486.315308
4131.086205	0.083573	0.173035	1561.363892
4131.087093	0.083448	0.173035	1635.466187
4132.067038	0.882477	0.196923	398.879517
4132.067985	0.539711	0.196923	909.985596
4132.068906	0.088385	0.196923	991.388184
4132.069801	0.083416	0.196923	1066.045044
4132.070735	0.083551	0.196923	1144.081665
4132.071680	0.083573	0.196923	1223.058105
4132.072580	0.083511	0.196923	1298.217773
4132.073497	0.083518	0.196923	1374.803833
4132.074427	0.083448	0.196923	1452.410889
4132.075341	0.083555	0.196923	1528.779907
4132.076227	0.083489	0.196923	1602.750977
4132.077178	0.083500	0.196923	1682.159180
4133.122504	0.867883	0.172621	381.868622
4133.123495	0.518276	0.172621	895.480469
4133.124408	0.087638	0.172621	975.493896
4133.125308	0.083467	0.172621	1050.614014
4133.126229	0.083448	0.172621	1127.470093
4133.127168	0.083467	0.172621	1205.845459
4133.128080	0.083518	0.172621	1282.013916
4133.128967	0.083452	0.172621	1356.036011
4133.129916	0.083500	0.172621	1435.277222
4133.130851	0.083478	0.172621	1513.328979
4133.131750	0.083478	0.172621	1588.375488
4133.132673	0.083463	0.172621	1665.411987
4134.108911	0.884850	0.196887	408.800629
4134.109820	0.569125	0.196887	926.135010
4134.110710	0.090106	0.196887	1006.329529
4134.111647	0.083423	0.196887	1084.496704
4134.112561	0.083456	0.196887	1160.775269
4134.113478	0.083456	0.196887	1237.304199
4134.114376	0.083496	0.196887	1312.283691
4134.115309	0.083478	0.196887	1390.168457
4134.116223	0.083511	0.196887	1466.497314
4134.117142	0.083525	0.196887	1543.257202
4134.118031	0.083478	0.196887	1617.468994
4134.118988	0.083441	0.196887	1697.322144
4135.165408	0.877368	0.179440	398.325134
4135.166307	0.587736	0.179440	926.699463
4135.167195	0.090872	0.179440	1007.393433
4135.168136	0.083485	0.179440	1085.952881
4135.169050	0.083386	0.179440	1162.167847
4135.169951	0.083430	0.179440	1237.338379
4135.170842	0.083518	0.179440	1311.752930
4135.171789	0.083628	0.179440	1390.948608
4135.172691	0.083555	0.179440	1466.314941
4135.173579	0.083478	0.179440	1540.443237
4135.174526	0.083514	0.179440	1619.531372
4135.175427	0.083533	0.179440	1694.794312
4136.154590	0.878448	0.193995	393.544922
4136.155517	0.562573	0.193995	915.050354
4136.156415	0.089696	0.193995	995.597412
4136.157351	0.083525	0.193995	1073.777222
4136.158259	0.083507	0.193995	1149.601685
4136.159166	0.083536	0.193995	1225.369141
4136.160053	0.083544	0.193995	1299.472412
4136.160992	0.083536	0.193995	1377.913086
4136.161899	0.083478	0.193995	1453.627441
4136.162792	0.083525	0.193995	1528.215576
4136.163700	0.083580	0.193995	1604.106445
4136.164614	0.083650	0.193995	1680.562500
4137.205709	0.867411	0.180645	380.793396
4137.206695	0.504518	0.180645	878.247986
4137.207618	0.087367	0.180645	958.887695
4137.208511	0.083503	0.180645	1033.456299
4137.209434	0.083467	0.180645	1110.496094
4137.210371	0.083489	0.180645	1188.725098
4137.211282	0.083459	0.180645	1264.756714
4137.212175	0.083547	0.180645	1339.364502
4137.213107	0.083577	0.180645	1417.257935
4137.214044	0.083533	0.180645	1495.528076
4137.214942	0.083507	0.180645	1570.517456
4137.215862	0.083522	0.180645	1647.357422
4138.200277	0.862101	0.190659	381.910675
4138.201173	0.604479	0.190659	923.523682
4138.202099	0.091154	0.190659	1007.931885
4138.203047	0.083361	0.190659	1086.957764
4138.203958	0.083405	0.190659	1162.939331
4138.204849	0.083503	0.190659	1237.340820
4138.205796	0.083463	0.190659	1316.380371
4138.206733	0.083481	0.190659	1394.602539
4138.207632	0.083525	0.190659	1469.691895
4138.208542	0.083492	0.190659	1545.670044
4138.209473	0.083452	0.190659	1623.364014
4138.210403	0.083445	0.190659	1700.967651
4139.246052	0.876980	0.184544	406.041748
4139.246957	0.567664	0.184544	919.777344
4139.247901	0.089546	0.184544	1004.308655
4139.248814	0.083456	0.184544	1080.503784
4139.249738	0.083522	0.184544	1157.677856
4139.250628	0.083522	0.184544	1232.012207
4139.251586	0.083474	0.184544	1311.980469
4139.252479	0.083419	0.184544	1386.473755
4139.253371	0.083511	0.184544	1460.965332
4139.254299	0.083467	0.184544	1538.422485
4139.255211	0.083423	0.184544	1614.504150
4139.256121	0.083448	0.184544	1690.442261
4140.245452	0.857336	0.190796	374.656006
4140.246349	0.607870	0.190796	919.915344
4140.247309	0.089070	0.190796	1005.422363
4140.248222	0.083430	0.190796	1081.594116
4140.249127	0.083577	0.190796	1157.230957
4140.250049	0.083580	0.190796	1234.291992
4140.250956	0.083555	0.190796	1310.076050
4140.251863	0.083474	0.190796	1385.787109
4140.252753	0.083544	0.190796	1460.140991
4140.253690	0.083580	0.190796	1538.455811
4140.254583	0.083551	0.190796	1613.066895
4140.255488	0.083555	0.190796	1688.683838
4141.287881	0.859014	0.186856	377.106995
4141.288774	0.605969	0.186856	918.237488
4141.289748	0.089048	0.186856	1004.970093
4141.290691	0.083386	0.186856	1083.603271
4141.291591	0.083470	0.186856	1158.726685
4141.292507	0.083518	0.186856	1235.229248
4141.293438	0.083525	0.186856	1312.991333
4141.294361	0.083492	0.186856	1390.054810
4141.295248	0.083514	0.186856	1464.132080
4141.296162	0.083467	0.186856	1540.420776
4141.297098	0.083456	0.186856	1618.535400
4141.298020	0.083518	0.186856	1695.539062
4142.290890	0.857699	0.189854	374.814453
4142.291827	0.578401	0.189854	916.776062
4142.292771	0.088879	0.189854	1000.678223
4142.293689	0.083383	0.189854	1077.223389
4142.294575	0.083533	0.189854	1151.233398
4142.295506	0.083470	0.189854	1228.944336
4142.296449	0.083489	0.189854	1307.674194
4142.297350	0.083489	0.189854	1382.897583
4142.298275	0.083470	0.189854	1460.107788
4142.299202	0.083547	0.189854	1537.556152
4142.300138	0.083529	0.189854	1615.739380
4142.301036	0.083518	0.189854	1690.738647
4143.329739	0.860182	0.186796	377.619843
4143.330635	0.603907	0.186796	918.720947
4143.331598	0.088524	0.186796	1003.969727
4143.332525	0.083405	0.186796	1081.285767
4143.333415	0.083511	0.186796	1155.610352
4143.334357	0.083456	0.186796	1234.225708
4143.335255	0.083463	0.186796	1309.175537
4143.336171	0.083507	0.186796	1385.667969
4143.337072	0.083478	0.186796	1460.881470
4143.338012	0.083416	0.186796	1539.292114
4143.338921	0.083448	0.186796	1615.146729
4143.339839	0.083441	0.186796	1691.745728
4144.334037	0.865880	0.189366	384.450775
4144.334941	0.603098	0.189366	929.651489
4144.335829	0.091278	0.189366	1010.706421
4144.336754	0.083408	0.189366	1087.859009
4144.337665	0.083438	0.189366	1163.870605
4144.338562	0.083434	0.189366	1238.710693
4144.339455	0.083489	0.189366	1313.266113
4144.340393	0.083478	0.189366	1391.568237
4144.341300	0.083412	0.189366	1467.222778
4144.342204	0.083478	0.189366	1542.686646
4144.343091	0.083452	0.189366	1616.708740
4144.344042	0.083474	0.189366	1696.092651
4145.372919	0.878796	0.188843	425.337433
4145.373848	0.514065	0.188843	902.903748
4145.374748	0.088400	0.188843	982.463440
4145.375638	0.083445	0.188843	1056.729370
4145.376586	0.083503	0.188843	1135.890625
4145.377483	0.083569	0.188843	1210.852295
4145.378386	0.083507	0.188843	1286.259155
4145.379276	0.083478	0.188843	1360.554443
4145.380217	0.083496	0.188843	1439.124268
4145.381116	0.083427	0.188843	1514.124756
4145.382018	0.083467	0.188843	1589.411865
4145.382944	0.083533	0.188843	1666.763184
4146.377164	0.863284	0.192283	378.981537
4146.378061	0.593525	0.192283	911.373779
4146.379031	0.088586	0.192283	997.302612
4146.379962	0.083456	0.192283	1075.000000
4146.380864	0.083518	0.192283	1150.333252
4146.381792	0.083522	0.192283	1227.841431
4146.382721	0.083518	0.192283	1305.429687
4146.383660	0.083514	0.192283	1383.849731
4146.384552	0.083500	0.192283	1458.331543
4146.385475	0.083492	0.192283	1535.395020
4146.386415	0.083489	0.192283	1613.874512
4146.387335	0.083430	0.192283	1690.630249
4147.416283	0.865470	0.188375	388.596008
4147.417180	0.594551	0.188375	921.908081
4147.418130	0.089073	0.188375	1006.527893
4147.419055	0.083401	0.188375	1083.673706
4147.419974	0.083544	0.188375	1160.450317
4147.420872	0.083584	0.188375	1235.508789
4147.421812	0.083507	0.188375	1314.005493
4147.422750	0.083525	0.188375	1392.352295
4147.423662	0.083547	0.188375	1468.547485
4147.424549	0.083514	0.188375	1542.624756
4147.425501	0.083514	0.188375	1622.130493
4147.426434	0.083478	0.188375	1700.015259
4148.418776	0.866224	0.190905	388.934753
4148.419678	0.592405	0.190905	923.283875
4148.420641	0.090315	0.190905	1010.257141
4148.421549	0.083339	0.190905	1085.928589
4148.422463	0.083405	0.190905	1162.160400
4148.423352	0.083459	0.190905	1236.355835
4148.424296	0.083467	0.190905	1315.148437
4148.425203	0.083489	0.190905	1390.872803
4148.426124	0.083478	0.190905	1467.755859
4148.427014	0.083536	0.190905	1542.103271
4148.427960	0.083438	0.190905	1621.035156
4148.428878	0.083459	0.190905	1697.651001
4149.461480	0.872113	0.186188	409.021027
4149.462391	0.558501	0.186188	917.815430
4149.463308	0.089725	0.186188	1000.093567
4149.464240	0.083364	0.186188	1077.789062
4149.465134	0.083555	0.186188	1152.486938
4149.466022	0.083544	0.186188	1226.673706
4149.466952	0.083566	0.186188	1304.389771
4149.467862	0.083503	0.186188	1380.377930
4149.468779	0.083595	0.186188	1457.034546
4149.469674	0.083522	0.186188	1531.786499
4149.470640	0.083533	0.186188	1612.479126
4149.471537	0.083529	0.186188	1687.404663
4150.461150	0.876984	0.191372	401.658508
4150.462052	0.579174	0.191372	924.073059
4150.463004	0.089861	0.191372	1009.620605
4150.463918	0.083386	0.191372	1085.835571
4150.464821	0.083445	0.191372	1161.186279
4150.465712	0.083459	0.191372	1235.548706
4150.466642	0.083511	0.191372	1313.213745
4150.467544	0.083540	0.191372	1388.566895
4150.468450	0.083478	0.191372	1464.197754
4150.469345	0.083525	0.191372	1538.953003
4150.470292	0.083470	0.191372	1617.999512
4150.471204	0.083496	0.191372	1694.147949
4151.506907	0.878855	0.185463	395.484741
4151.507822	0.575178	0.185463	921.772827
4151.508709	0.090491	0.185463	1002.038086
4151.509687	0.083478	0.185463	1083.679321
4151.510593	0.083503	0.185463	1159.333374
4151.511489	0.083500	0.185463	1234.149170
4151.512427	0.083610	0.185463	1312.574951
4151.513326	0.083613	0.185463	1387.743286
4151.514222	0.083492	0.185463	1462.552490
4151.515108	0.083555	0.185463	1536.581909
4151.516043	0.083624	0.185463	1614.770630
4151.516945	0.083525	0.185463	1690.110596
4152.501231	0.902992	0.196686	427.115204
4152.502180	0.502372	0.196686	903.866089
4152.503106	0.087517	0.196686	984.906921
4152.503998	0.083463	0.196686	1059.356079
4152.504948	0.083441	0.196686	1138.625244
4152.505883	0.083511	0.196686	1216.707764
4152.506782	0.083588	0.196686	1291.853027
4152.507709	0.083470	0.196686	1369.230103
4152.508643	0.083558	0.196686	1447.273560
4152.509563	0.083577	0.196686	1524.164062
4152.510454	0.083606	0.196686	1598.656982
4152.511388	0.083496	0.196686	1676.642334
4153.553095	0.865430	0.181660	377.327362
4153.554076	0.528966	0.181660	896.243042
4153.555000	0.087880	0.181660	977.443848
4153.555890	0.083511	0.181660	1051.768433
4153.556822	0.083544	0.181660	1129.631104
4153.557727	0.083511	0.181660	1205.208374
4153.558646	0.083478	0.181660	1281.924438
4153.559542	0.083533	0.181660	1356.769775
4153.560496	0.083496	0.181660	1436.425049
4153.561399	0.083496	0.181660	1511.822021
4153.562320	0.083529	0.181660	1588.752319
4153.563207	0.083441	0.181660	1662.764648
4154.543326	0.873787	0.195542	394.077728
4154.544235	0.577921	0.195542	919.408081
4154.545135	0.090231	0.195542	1000.615723
4154.546085	0.083503	0.195542	1079.943970
4154.547003	0.083511	0.195542	1156.606812
4154.547906	0.083518	0.195542	1232.023682
4154.548796	0.083511	0.195542	1306.348267
4154.549747	0.083522	0.195542	1385.777466
4154.550651	0.083540	0.195542	1461.297607
4154.551544	0.083514	0.195542	1535.875977
4154.552492	0.083621	0.195542	1615.148315
4154.553400	0.083573	0.195542	1691.032593
4155.598026	0.859087	0.180282	377.139130
4155.599000	0.526099	0.180282	889.559204
4155.599894	0.088601	0.180282	968.768555
4155.600802	0.083544	0.180282	1044.626221
4155.601700	0.083584	0.180282	1119.684692
4155.602653	0.083654	0.180282	1199.406494
4155.603567	0.083591	0.180282	1275.808960
4155.604467	0.083584	0.180282	1351.034546
4155.605394	0.083676	0.180282	1428.601807
4155.606295	0.083628	0.180282	1503.950562
4155.607191	0.083606	0.180282	1578.861450
4155.608077	0.083595	0.180282	1652.926636
4156.585696	0.885278	0.199187	405.457458
4156.586601	0.572699	0.199187	923.750061
4156.587545	0.088707	0.199187	1007.489746
4156.588481	0.083474	0.199187	1085.621582
4156.589394	0.083562	0.199187	1161.913696
4156.590284	0.083514	0.199187	1236.241455
4156.591199	0.083536	0.199187	1312.677246
4156.592135	0.083514	0.199187	1390.846680
4156.593058	0.083496	0.199187	1467.913574
4156.593953	0.083529	0.199187	1542.672119
4156.594905	0.083507	0.199187	1622.170898
4156.595834	0.083525	0.199187	1699.765991
4157.639950	0.926807	0.178663	469.890961
4157.640859	0.516317	0.178663	939.223267
4157.641783	0.087902	0.178663	1020.444336
4157.642672	0.083511	0.178663	1094.685425
4157.643614	0.083503	0.178663	1173.345703
4157.644537	0.083489	0.178663	1250.405884
4157.645435	0.083536	0.178663	1325.421509
4157.646367	0.083481	0.178663	1403.226196
4157.647291	0.083500	0.178663	1480.380005
4157.648212	0.083529	0.178663	1557.310303
4157.649101	0.083423	0.178663	1631.473267
4157.650042	0.083522	0.178663	1710.067261
4158.630363	0.872966	0.202047	395.453766
4158.631260	0.593104	0.202047	927.468262
4158.632211	0.090143	0.202047	1013.194092
4158.633114	0.083419	0.202047	1088.521606
4158.634015	0.083514	0.202047	1163.768066
4158.634907	0.083533	0.202047	1238.279297
4158.635833	0.083654	0.202047	1315.742432
4158.636731	0.083544	0.202047	1390.764648
4158.637647	0.083540	0.202047	1467.287354
4158.638538	0.083503	0.202047	1541.688843
4158.639481	0.083525	0.202047	1620.453247
4158.640377	0.083547	0.202047	1695.311646
4159.680713	0.861156	0.179432	375.464020
4159.681676	0.542186	0.179432	897.589355
4159.682587	0.088418	0.179432	978.138123
4159.683489	0.083529	0.179432	1053.481323
4159.684379	0.083558	0.179432	1127.848267
4159.685335	0.083690	0.179432	1207.856079
4159.686238	0.083635	0.179432	1283.378662
4159.687129	0.083661	0.179432	1357.920532
4159.688049	0.083555	0.179432	1434.790894
4159.688958	0.083665	0.179432	1510.841919
4159.689859	0.083555	0.179432	1586.124634
4159.690757	0.083584	0.179432	1661.183105
4160.676852	0.881155	0.198265	415.905060
4160.677788	0.519108	0.198265	901.789856
4160.678705	0.088041	0.198265	982.523254
4160.679603	0.083463	0.198265	1057.473145
4160.680547	0.083529	0.198265	1136.324585
4160.681486	0.083481	0.198265	1214.713623
4160.682386	0.083555	0.198265	1289.912842
4160.683303	0.083562	0.198265	1366.539185
4160.684227	0.083511	0.198265	1443.703125
4160.685155	0.083540	0.198265	1521.228271
4160.686044	0.083577	0.198265	1595.527954
4160.686963	0.083591	0.198265	1672.348389
4161.720279	0.860596	0.182244	383.825684
4161.721181	0.596331	0.182244	921.715820
4161.722070	0.091238	0.182244	1002.826233
4161.723040	0.083522	0.182244	1083.842285
4161.723934	0.083503	0.182244	1158.494385
4161.724852	0.083566	0.182244	1235.207642
4161.725753	0.083503	0.182244	1310.444214
4161.726684	0.083492	0.182244	1388.175659
4161.727607	0.083547	0.182244	1465.289917
4161.728507	0.083558	0.182244	1540.492432
4161.729462	0.083573	0.182244	1620.304687
4161.730367	0.083500	0.182244	1695.871948
4162.724037	0.853689	0.198208	369.647308
4162.724988	0.580492	0.198208	921.695190
4162.725902	0.089055	0.198208	1003.091614
4162.726802	0.083511	0.198208	1078.251221
4162.727692	0.083621	0.198208	1152.673584
4162.728640	0.083657	0.198208	1231.980591
4162.729549	0.083536	0.198208	1307.915161
4162.730451	0.083580	0.198208	1383.304565
4162.731336	0.083540	0.198208	1457.237549
4162.732281	0.083628	0.198208	1536.265991
4162.733182	0.083558	0.198208	1611.552002
4162.734068	0.083584	0.198208	1685.607422
4163.759824	0.861445	0.185334	380.758820
4163.760717	0.600421	0.185334	916.934937
4163.761654	0.089520	0.185334	1000.815430
4163.762564	0.083448	0.185334	1076.753540
4163.763461	0.083507	0.185334	1151.659424
4163.764394	0.083566	0.185334	1229.626221
4163.765303	0.083558	0.185334	1305.580811
4163.766212	0.083507	0.185334	1381.488770
4163.767110	0.083525	0.185334	1456.494629
4163.768054	0.083599	0.185334	1535.411743
4163.768956	0.083566	0.185334	1610.787964
4163.769857	0.083522	0.185334	1686.041016
4164.770535	0.872300	0.195441	403.002502
4164.771460	0.548525	0.195441	910.388489
4164.772355	0.089337	0.195441	990.345215
4164.773280	0.083481	0.195441	1067.565552
4164.774215	0.083474	0.195441	1145.613892
4164.775132	0.083536	0.195441	1222.216797
4164.776022	0.083580	0.195441	1296.603271
4164.776964	0.083503	0.195441	1375.263428
4164.777889	0.083507	0.195441	1452.507446
4164.778800	0.083540	0.195441	1528.612427
4164.779700	0.083474	0.195441	1603.739136
4164.780648	0.083511	0.195441	1682.907349
4165.800912	0.865609	0.186671	382.599213
4165.801802	0.601802	0.186671	918.202759
4165.802780	0.089000	0.186671	1005.244995
4165.803708	0.083533	0.186671	1082.763306
4165.804594	0.083584	0.186671	1156.818726
4165.805523	0.083507	0.186671	1234.396851
4165.806438	0.083551	0.186671	1310.846069
4165.807361	0.083533	0.186671	1387.946777
4165.808258	0.083584	0.186671	1462.921631
4165.809196	0.083518	0.186671	1541.261597
4165.810110	0.083555	0.186671	1617.630615
4165.811034	0.083481	0.186671	1694.767456
4166.815239	0.916805	0.192303	458.402679
4166.816159	0.514226	0.192303	931.490662
4166.817081	0.087832	0.192303	1012.471802
4166.817968	0.083438	0.192303	1086.480835
4166.818910	0.083459	0.192303	1165.099609
4166.819808	0.083478	0.192303	1240.062622
4166.820701	0.083496	0.192303	1314.624634
4166.821629	0.083558	0.192303	1392.166748
4166.822551	0.083503	0.192303	1469.156860
4166.823451	0.083474	0.192303	1544.283569
4166.824340	0.083518	0.192303	1618.531128
4166.825296	0.083536	0.192303	1698.391846
4167.843536	0.860222	0.190075	380.218201
4167.844495	0.547386	0.190075	905.161804
4167.845403	0.088846	0.190075	985.834351
4167.846302	0.083430	0.190075	1060.838135
4167.847215	0.083551	0.190075	1137.120239
4167.848132	0.083536	0.190075	1213.723145
4167.849041	0.083459	0.190075	1289.587769
4167.849940	0.083496	0.190075	1364.650757
4167.850875	0.083551	0.190075	1442.770996
4167.851777	0.083533	0.190075	1518.117554
4167.852678	0.083577	0.190075	1593.420166
4167.853565	0.083518	0.190075	1667.500732
4168.858318	0.864884	0.192118	382.278748
4168.859214	0.592002	0.192118	912.712524
4168.860190	0.088623	0.192118	999.208618
4168.861131	0.083485	0.192118	1077.768066
4168.862027	0.083547	0.192118	1152.626465
4168.862946	0.083438	0.192118	1229.305542
4168.863882	0.083489	0.192118	1307.451050
4168.864793	0.083566	0.192118	1383.579346
4168.865687	0.083500	0.192118	1458.228149
4168.866636	0.083577	0.192118	1537.542358
4168.867572	0.083551	0.192118	1615.746094
4168.868473	0.083569	0.192118	1691.042114
4169.886676	0.870564	0.191622	387.400970
4169.887614	0.555326	0.191622	908.296631
4169.888508	0.089681	0.191622	988.471802
4169.889462	0.083427	0.191622	1068.060669
4169.890401	0.083562	0.191622	1146.525391
4169.891290	0.083544	0.191622	1220.795776
4169.892216	0.083533	0.191622	1298.147095
4169.893149	0.083518	0.191622	1376.069458
4169.894060	0.083503	0.191622	1452.141113
4169.894948	0.083507	0.191622	1526.295410
4169.895905	0.083514	0.191622	1606.218750
4169.896840	0.083522	0.191622	1684.311523
4170.900736	0.882675	0.190184	435.158569
4170.901667	0.498428	0.190184	899.194824
4170.902570	0.087942	0.190184	978.606323
4170.903490	0.083474	0.190184	1055.402466
4170.904377	0.083588	0.190184	1129.544678
4170.905343	0.083547	0.190184	1210.251465
4170.906242	0.083558	0.190184	1285.370361
4170.907132	0.083599	0.190184	1359.773193
4170.908073	0.083569	0.190184	1438.411987
4170.908989	0.083617	0.190184	1515.005127
4170.909908	0.083584	0.190184	1591.818848
4170.910797	0.083606	0.190184	1666.144531
4171.930834	0.861189	0.191227	379.784363
4171.931759	0.579020	0.191227	915.377686
4171.932655	0.090337	0.191227	996.319580
4171.933595	0.083485	0.191227	1074.795532
4171.934495	0.083577	0.191227	1150.014526
4171.935386	0.083496	0.191227	1224.409546
4171.936273	0.083584	0.191227	1298.548584
4171.937204	0.083555	0.191227	1376.338013
4171.938113	0.083595	0.191227	1452.325806
4171.939022	0.083555	0.191227	1528.276978
4171.939910	0.083544	0.191227	1602.463745
4171.940865	0.083591	0.191227	1682.293457
4172.942796	0.862419	0.192210	378.602142
4172.943758	0.542498	0.192210	900.484863
4172.944664	0.088583	0.192210	980.740845
4172.945566	0.083496	0.192210	1056.054321
4172.946455	0.083496	0.192210	1130.282349
4172.947420	0.083558	0.192210	1210.916138
4172.948326	0.083536	0.192210	1286.600098
4172.949225	0.083558	0.192210	1361.718994
4172.950154	0.083635	0.192210	1439.416138
4172.951058	0.083591	0.192210	1514.982666
4172.951955	0.083500	0.192210	1589.881958
4172.952839	0.083496	0.192210	1663.692505
4173.975494	0.860248	0.191545	374.207794
4173.976456	0.538282	0.191545	892.035522
4173.977408	0.087883	0.191545	975.700439
4173.978323	0.083533	0.191545	1052.132812
4173.979209	0.083511	0.191545	1126.123291
4173.980142	0.083573	0.191545	1204.096924
4173.981083	0.083525	0.191545	1282.694336
4173.981983	0.083573	0.191545	1357.910034
4173.982902	0.083496	0.191545	1434.642944
4173.983848	0.083492	0.191545	1513.626831
4173.984766	0.083555	0.191545	1590.330078
4173.985658	0.083474	0.191545	1664.788940
4174.984903	0.861237	0.192130	374.637909
4174.985883	0.522220	0.192130	886.413940
4174.986803	0.087949	0.192130	967.327209
4174.987694	0.083569	0.192130	1041.787476
4174.988613	0.083511	0.192130	1118.533813
4174.989549	0.083529	0.192130	1196.717041
4174.990463	0.083599	0.192130	1273.126221
4174.991361	0.083511	0.192130	1348.118896
4174.992300	0.083511	0.192130	1426.535522
4174.993234	0.083496	0.192130	1504.520874
4174.994135	0.083599	0.192130	1579.843262
4174.995055	0.083485	0.192130	1656.649536
4176.019167	0.878507	0.192714	401.477722
4176.020064	0.582909	0.192714	924.347046
4176.021013	0.089011	0.192714	1008.818726
4176.021927	0.083485	0.192714	1085.124146
4176.022854	0.083573	0.192714	1162.596313
4176.023742	0.083533	0.192714	1236.773315
4176.024699	0.083566	0.192714	1316.745605
4176.025599	0.083558	0.192714	1391.948120
4176.026521	0.083562	0.192714	1468.992310
4176.027408	0.083562	0.192714	1543.111816
4176.028365	0.083547	0.192714	1623.066650
4176.029284	0.083558	0.192714	1699.856812
4177.027076	0.912715	0.193822	453.619293
4177.028012	0.493374	0.193822	915.417358
4177.028914	0.087810	0.193822	994.622009
4177.029801	0.083496	0.193822	1068.683105
4177.030751	0.083591	0.193822	1148.094849
4177.031649	0.083533	0.193822	1223.107178
4177.032536	0.083551	0.193822	1297.216919
4177.033452	0.083580	0.193822	1373.776489
4177.034370	0.083591	0.193822	1450.513306
4177.035280	0.083555	0.193822	1526.548096
4177.036170	0.083591	0.193822	1600.944336
4177.037100	0.083639	0.193822	1678.728516
4178.062798	0.875207	0.188109	385.091278
4178.063779	0.500328	0.188109	875.913391
4178.064697	0.087693	0.188109	956.415466
4178.065593	0.083507	0.188109	1031.237793
4178.066527	0.083518	0.188109	1109.243652
4178.067429	0.083558	0.188109	1184.613281
4178.068326	0.083628	0.188109	1259.627563
4178.069213	0.083540	0.188109	1333.727539
4178.070146	0.083610	0.188109	1411.735352
4178.071058	0.083588	0.188109	1487.967285
4178.071956	0.083555	0.188109	1562.999390
4178.072878	0.083610	0.188109	1640.087402
4179.070426	0.879763	0.195179	396.773193
4179.071353	0.557981	0.195179	914.021545
4179.072256	0.089418	0.195179	994.765747
4179.073193	0.083507	0.195179	1073.011841
4179.074103	0.083555	0.195179	1149.046631
4179.075010	0.083610	0.195179	1224.880615
4179.075898	0.083591	0.195179	1299.109741
4179.076854	0.083613	0.195179	1379.044067
4179.077757	0.083525	0.195179	1454.467529
4179.078648	0.083551	0.195179	1528.911499
4179.079575	0.083606	0.195179	1606.414185
4179.080484	0.083610	0.195179	1682.415283
4180.106720	0.885872	0.190712	405.729187
4180.107630	0.568630	0.190712	923.182861
4180.108563	0.088744	0.190712	1005.980896
4180.109506	0.083489	0.190712	1084.710815
4180.110420	0.083544	0.190712	1161.069702
4180.111306	0.083610	0.190712	1235.147827
4180.112249	0.083500	0.190712	1313.888062
4180.113175	0.083533	0.190712	1391.239380
4180.114067	0.083558	0.190712	1465.773437
4180.114983	0.083511	0.190712	1542.269287
4180.115921	0.083588	0.190712	1620.674561
4180.116851	0.083533	0.190712	1698.359985
4181.113293	0.855923	0.191606	371.470520
4181.114241	0.564042	0.191606	906.182068
4181.115148	0.088949	0.191606	986.858765
4181.116073	0.083452	0.191606	1064.052002
4181.116964	0.083500	0.191606	1138.450317
4181.117909	0.083511	0.191606	1217.367920
4181.118829	0.083500	0.191606	1294.187744
4181.119748	0.083536	0.191606	1370.957642
4181.120637	0.083580	0.191606	1445.260498
4181.121579	0.083569	0.191606	1523.982788
4181.122502	0.083544	0.191606	1601.093628
4181.123407	0.083555	0.191606	1676.710571
4182.149836	0.871377	0.193112	382.534485
4182.150825	0.503009	0.193112	880.010376
4182.151736	0.087861	0.193112	960.052063
4182.152626	0.083489	0.193112	1034.357056
4182.153560	0.083591	0.193112	1112.431396
4182.154478	0.083558	0.193112	1189.137939
4182.155399	0.083511	0.193112	1266.051270
4182.156289	0.083566	0.193112	1340.424683
4182.157237	0.083577	0.193112	1419.655396
4182.158135	0.083569	0.193112	1494.700684
4182.159049	0.083562	0.193112	1571.076416
4182.159953	0.083514	0.193112	1646.573486
4183.156701	0.875413	0.193592	392.184845
4183.157606	0.591563	0.193592	927.548950
4183.158489	0.091172	0.193592	1008.053711
4183.159449	0.083540	0.193592	1088.252197
4183.160349	0.083599	0.193592	1163.490967
4183.161252	0.083540	0.193592	1238.927612
4183.162140	0.083562	0.193592	1313.130737
4183.163093	0.083602	0.193592	1392.803711
4183.163999	0.083569	0.193592	1468.517578
4183.164901	0.083503	0.193592	1543.837646
4183.165827	0.083562	0.193592	1621.216064
4183.166725	0.083613	0.193592	1696.300781
4184.192229	0.877958	0.190659	410.884247
4184.193177	0.519697	0.190659	903.557251
4184.194085	0.088440	0.190659	983.860718
4184.194976	0.083514	0.190659	1058.272095
4184.195895	0.083555	0.190659	1135.058838
4184.196808	0.083577	0.190659	1211.364380
4184.197709	0.083577	0.190659	1286.666992
4184.198596	0.083555	0.190659	1360.780029
4184.199544	0.083621	0.190659	1440.052368
4184.200455	0.083569	0.190659	1516.184082
4184.201353	0.083602	0.190659	1591.258911
4184.202271	0.083525	0.190659	1667.935181
4185.201126	0.877009	0.191115	407.809326
4185.202097	0.478579	0.191115	872.509644
4185.203023	0.087063	0.191115	953.129944
4185.203920	0.083514	0.191115	1028.042358
4185.204842	0.083613	0.191115	1105.133789
4185.205785	0.083654	0.191115	1184.019043
4185.206703	0.083599	0.191115	1260.762573
4185.207590	0.083562	0.191115	1334.882080
4185.208538	0.083606	0.191115	1414.140503
4185.209474	0.083555	0.191115	1492.347656
4185.210365	0.083514	0.191115	1566.759033
4185.211295	0.083569	0.191115	1644.478516
4186.234574	0.858699	0.192371	377.827454
4186.235480	0.600051	0.192371	921.473938
4186.236368	0.091421	0.192371	1002.655701
4186.237333	0.083489	0.192371	1083.222412
4186.238251	0.083584	0.192371	1159.952515
4186.239152	0.083580	0.192371	1235.258423
4186.240060	0.083518	0.192371	1311.092773
4186.241006	0.083610	0.192371	1390.187500
4186.241921	0.083536	0.192371	1466.623291
4186.242810	0.083518	0.192371	1540.870850
4186.243748	0.083496	0.192371	1619.190186
4186.244657	0.083522	0.192371	1695.111450
4187.245264	0.866547	0.193133	386.479797
4187.246246	0.510568	0.193133	887.857239
4187.247162	0.087839	0.193133	968.318115
4187.248058	0.083529	0.193133	1043.160156
4187.248952	0.083529	0.193133	1117.835083
4187.249894	0.083533	0.193133	1196.522949
4187.250799	0.083492	0.193133	1272.083618
4187.251692	0.083584	0.193133	1346.724121
4187.252626	0.083551	0.193133	1424.760742
4187.253530	0.083577	0.193133	1500.314087
4187.254425	0.083595	0.193133	1575.131592
4187.255312	0.083514	0.193133	1649.208862
4188.276950	0.866082	0.191956	386.272369
4188.277849	0.602043	0.191956	927.509399
4188.278808	0.090527	0.191956	1014.325134
4188.279714	0.083580	0.191956	1090.048950
4188.280613	0.083621	0.191956	1165.223877
4188.281504	0.083562	0.191956	1239.677612
4188.282438	0.083661	0.191956	1317.816895
4188.283348	0.083599	0.191956	1393.891602
4188.284245	0.083584	0.191956	1468.866455
4188.285159	0.083606	0.191956	1545.282349
4188.286074	0.083657	0.191956	1621.828735
4188.286984	0.083518	0.191956	1697.830200
4189.289930	0.862720	0.191940	378.733948
4189.290832	0.586443	0.191940	907.705444
4189.291813	0.088048	0.191940	994.080627
4189.292753	0.083463	0.191940	1072.536011
4189.293646	0.083566	0.191940	1147.160156
4189.294566	0.083540	0.191940	1224.016968
4189.295503	0.083551	0.191940	1302.304321
4189.296424	0.083617	0.191940	1379.315552
4189.297311	0.083536	0.191940	1453.412354
4189.298252	0.083558	0.191940	1532.040771
4189.299185	0.083540	0.191940	1609.983643
4189.300077	0.083562	0.191940	1684.520996
4190.319053	0.857626	0.193459	377.355316
4190.319951	0.600915	0.193459	916.977417
4190.320930	0.088989	0.193459	1004.097900
4190.321850	0.083481	0.193459	1080.900879
4190.322738	0.083580	0.193459	1155.120239
4190.323665	0.083580	0.193459	1232.599243
4190.324608	0.083500	0.193459	1311.339478
4190.325516	0.083522	0.193459	1387.177246
4190.326417	0.083551	0.193459	1462.456665
4190.327358	0.083562	0.193459	1541.088501
4190.328299	0.083558	0.193459	1619.716919
4190.329197	0.083555	0.193459	1694.749023
4191.333586	0.859131	0.194659	378.876709
4191.334489	0.601886	0.194659	922.379761
4191.335378	0.091384	0.194659	1003.620361
4191.336341	0.083489	0.194659	1084.020020
4191.337247	0.083496	0.194659	1159.667480
4191.338137	0.083514	0.194659	1233.995361
4191.339049	0.083551	0.194659	1310.193848
4191.339976	0.083558	0.194659	1387.652466
4191.340873	0.083500	0.194659	1462.551758
4191.341768	0.083540	0.194659	1537.320068
4191.342694	0.083529	0.194659	1614.667969
4191.343601	0.083544	0.194659	1690.442139
4192.361952	0.878602	0.192186	396.249634
4192.362877	0.559816	0.192186	914.079102
4192.363772	0.089828	0.192186	994.475037
4192.364661	0.083507	0.192186	1068.712891
4192.365610	0.083643	0.192186	1148.089722
4192.366512	0.083577	0.192186	1223.475830
4192.367412	0.083606	0.192186	1298.721191
4192.368347	0.083654	0.192186	1376.937256
4192.369253	0.083602	0.192186	1452.680908
4192.370156	0.083613	0.192186	1528.183716
4192.371048	0.083580	0.192186	1602.737305
4192.371992	0.083624	0.192186	1681.678589
4193.377269	0.890208	0.195328	425.519196
4193.378215	0.510520	0.195328	908.471191
4193.379143	0.087645	0.195328	989.805969
4193.380034	0.083503	0.195328	1064.207520
4193.380979	0.083503	0.195328	1143.118286
4193.381906	0.083518	0.195328	1220.539551
4193.382807	0.083558	0.195328	1295.825684
4193.383729	0.083470	0.195328	1372.785400
4193.384662	0.083591	0.195328	1450.776123
4193.385596	0.083566	0.195328	1528.826416
4193.386495	0.083580	0.195328	1603.965088
4193.387407	0.083496	0.195328	1680.113525
4194.406090	0.866656	0.191811	378.728882
4194.407072	0.509605	0.191811	879.160522
4194.407992	0.087704	0.191811	959.848083
4194.408882	0.083569	0.191811	1034.224854
4194.409800	0.083599	0.191811	1110.968384
4194.410731	0.083573	0.191811	1188.774902
4194.411646	0.083621	0.191811	1265.287720
4194.412536	0.083613	0.191811	1339.703491
4194.413477	0.083591	0.191811	1418.362915
4194.414410	0.083547	0.191811	1496.312622
4194.415307	0.083599	0.191811	1571.300537
4194.416224	0.083584	0.191811	1647.947021
4195.419350	0.866455	0.197737	384.706055
4195.420255	0.596851	0.197737	924.855835
4195.421144	0.091073	0.197737	1005.819702
4195.422081	0.083452	0.197737	1084.014404
4195.422996	0.083496	0.197737	1160.413330
4195.423897	0.083503	0.197737	1235.649902
4195.424781	0.083522	0.197737	1309.483154
4195.425722	0.083518	0.197737	1388.073608
4195.426631	0.083481	0.197737	1463.958252
4195.427552	0.083507	0.197737	1540.868286
4195.428444	0.083529	0.197737	1615.376221
4195.429401	0.083518	0.197737	1695.302979
4196.451017	0.857465	0.187517	374.712036
4196.451988	0.522957	0.187517	882.502808
4196.452906	0.088129	0.187517	963.404907
4196.453812	0.083518	0.187517	1039.072266
4196.454702	0.083573	0.187517	1113.452271
4196.455645	0.083500	0.187517	1192.192505
4196.456547	0.083536	0.187517	1267.542358
4196.457438	0.083536	0.187517	1341.973267
4196.458369	0.083599	0.187517	1419.803589
4196.459282	0.083496	0.187517	1496.035522
4196.460184	0.083551	0.187517	1571.398560
4196.461076	0.083547	0.187517	1645.922852
4197.460176	0.866906	0.201008	385.772949
4197.461141	0.552865	0.201008	919.287659
4197.462052	0.088348	0.201008	999.773071
4197.462949	0.083452	0.201008	1074.629639
4197.463838	0.083514	0.201008	1148.873901
4197.464783	0.083562	0.201008	1227.839966
4197.465689	0.083496	0.201008	1303.487427
4197.466595	0.083514	0.201008	1379.151489
4197.467486	0.083500	0.201008	1453.549805
4197.468436	0.083566	0.201008	1532.937256
4197.469342	0.083492	0.201008	1608.581421
4197.470242	0.083577	0.201008	1683.800415
4198.497241	0.878804	0.184125	394.582886
4198.498175	0.545251	0.184125	903.847778
4198.499074	0.089213	0.184125	984.049927
4198.500036	0.083416	0.184125	1064.295654
4198.500975	0.083566	0.184125	1142.763794
4198.501873	0.083584	0.184125	1217.822266
4198.502802	0.083492	0.184125	1295.386719
4198.503739	0.083489	0.184125	1373.615723
4198.504657	0.083573	0.184125	1450.335693
4198.505548	0.083540	0.184125	1524.769897
4198.506495	0.083522	0.184125	1603.864990
4198.507427	0.083529	0.184125	1681.714111
4199.499990	0.867078	0.202744	386.716644
4199.500885	0.603124	0.202744	926.512451
4199.501832	0.090817	0.202744	1012.515808
4199.502728	0.083430	0.202744	1087.269287
4199.503646	0.083492	0.202744	1163.915283
4199.504540	0.083544	0.202744	1238.603394
4199.505474	0.083540	0.202744	1316.629761
4199.506381	0.083511	0.202744	1392.374023
4199.507304	0.083551	0.202744	1469.491577
4199.508192	0.083518	0.202744	1543.655640
4199.509136	0.083507	0.202744	1622.486328
4199.510033	0.083481	0.202744	1697.369141
4200.543950	0.865979	0.182301	385.360626
4200.544944	0.481139	0.182301	863.612732
4200.545839	0.087700	0.182301	942.104431
4200.546762	0.083459	0.182301	1019.137512
4200.547650	0.083514	0.182301	1093.298340
4200.548594	0.083529	0.182301	1172.149780
4200.549495	0.083518	0.182301	1247.399536
4200.550382	0.083544	0.182301	1321.502808
4200.551310	0.083602	0.182301	1399.085693
4200.552225	0.083485	0.182301	1475.474609
4200.553127	0.083533	0.182301	1550.821167
4200.554020	0.083602	0.182301	1625.478027
4201.541578	0.858878	0.208295	375.329773
4201.542484	0.608020	0.208295	926.195923
4201.543372	0.091516	0.208295	1007.462219
4201.544310	0.083525	0.208295	1085.809082
4201.545219	0.083606	0.208295	1161.806885
4201.546130	0.083533	0.208295	1237.905151
4201.547023	0.083547	0.208295	1312.512939
4201.547972	0.083599	0.208295	1391.848022
4201.548879	0.083540	0.208295	1467.618896
4201.549766	0.083573	0.208295	1541.748169
4201.550705	0.083558	0.208295	1620.209473
4201.551604	0.083602	0.208295	1695.367920
4202.590437	0.867861	0.182856	394.009033
4202.591338	0.586578	0.182856	922.516113
4202.592227	0.090648	0.182856	1003.102356
4202.593172	0.083438	0.182856	1081.950806
4202.594096	0.083529	0.182856	1159.131592
4202.595011	0.083518	0.182856	1235.550659
4202.595898	0.083470	0.182856	1309.588989
4202.596856	0.083514	0.182856	1389.595825
4202.597793	0.083496	0.182856	1467.831665
4202.598693	0.083529	0.182856	1543.007812
4202.599614	0.083500	0.182856	1619.911133
4202.600548	0.083507	0.182856	1697.906738
4203.579870	0.871099	0.203969	391.123291
4203.580766	0.594353	0.203969	923.663574
4203.581725	0.088817	0.203969	1008.839233
4203.582627	0.083459	0.203969	1084.119629
4203.583539	0.083503	0.203969	1160.274780
4203.584429	0.083507	0.203969	1234.596069
4203.585379	0.083463	0.203969	1313.885986
4203.586285	0.083470	0.203969	1389.510254
4203.587179	0.083525	0.203969	1464.182007
4203.588109	0.083503	0.203969	1541.840210
4203.589018	0.083511	0.203969	1617.751465
4203.589936	0.083536	0.203969	1694.437866
4204.635358	0.881602	0.182337	404.655121
4204.636258	0.580543	0.182337	927.144043
4204.637143	0.090714	0.182337	1007.426025
4204.638104	0.083430	0.182337	1087.602417
4204.639010	0.083481	0.182337	1163.236572
4204.639903	0.083485	0.182337	1237.788818
4204.640837	0.083573	0.182337	1315.845947
4204.641750	0.083503	0.182337	1392.084595
4204.642643	0.083485	0.182337	1466.636841
4204.643535	0.083507	0.182337	1541.125122
4204.644479	0.083588	0.182337	1620.031860
4204.645393	0.083533	0.182337	1696.380737
4205.622987	0.860273	0.204734	381.101166
4205.623978	0.500812	0.204734	877.405640
4205.624879	0.088055	0.204734	956.743591
4205.625779	0.083441	0.204734	1031.840576
4205.626666	0.083514	0.204734	1105.917847
4205.627611	0.083628	0.204734	1184.946289
4205.628511	0.083459	0.204734	1260.059814
4205.629413	0.083507	0.204734	1335.383179
4205.630344	0.083540	0.204734	1413.158936
4205.631254	0.083555	0.204734	1489.193726
4205.632153	0.083452	0.204734	1564.217163
4205.633041	0.083448	0.204734	1638.319458
4206.678217	0.860266	0.183678	378.517090
4206.679196	0.539634	0.183678	906.818604
4206.680112	0.087784	0.183678	987.229126
4206.681010	0.083452	0.183678	1062.169189
4206.681922	0.083566	0.183678	1138.381104
4206.682856	0.083507	0.183678	1216.376709
4206.683771	0.083470	0.183678	1292.752197
4206.684666	0.083540	0.183678	1367.520508
4206.685604	0.083463	0.183678	1445.808960
4206.686532	0.083489	0.183678	1523.286499
4206.687443	0.083507	0.183678	1599.361450
4206.688335	0.083438	0.183678	1673.787720
4207.666885	0.854443	0.199594	369.973969
4207.667850	0.542417	0.199594	893.406372
4207.668766	0.088586	0.199594	974.551514
4207.669684	0.083412	0.199594	1051.123657
4207.670575	0.083536	0.199594	1125.554565
4207.671523	0.083522	0.199594	1204.733154
4207.672414	0.083507	0.199594	1279.137939
4207.673308	0.083481	0.199594	1353.770386
4207.674246	0.083584	0.199594	1432.172119
4207.675152	0.083470	0.199594	1507.796387
4207.676075	0.083533	0.199594	1584.897095
4207.676964	0.083492	0.199594	1659.121826
4208.720365	0.892720	0.186546	414.221954
4208.721291	0.546687	0.186546	920.454102
4208.722186	0.089033	0.186546	1000.138794
4208.723093	0.083492	0.186546	1075.866455
4208.724015	0.083591	0.186546	1152.937622
4208.724923	0.083536	0.186546	1228.788696
4208.725825	0.083522	0.186546	1304.125244
4208.726758	0.083577	0.186546	1382.102295
4208.727660	0.083577	0.186546	1457.488403
4208.728569	0.083518	0.186546	1533.406372
4208.729458	0.083558	0.186546	1607.689697
4208.730403	0.083555	0.186546	1686.648926
4209.711819	0.858812	0.199606	375.300964
4209.712759	0.583704	0.199606	923.982361
4209.713671	0.089279	0.199606	1005.404419
4209.714584	0.083448	0.199606	1081.592896
4209.715474	0.083496	0.199606	1155.904419
4209.716399	0.083661	0.199606	1233.290771
4209.717309	0.083599	0.199606	1309.365479
4209.718220	0.083588	0.199606	1385.513794
4209.719114	0.083624	0.199606	1460.273926
4209.720040	0.083533	0.199606	1537.625244
4209.720950	0.083595	0.199606	1613.696655
4209.721857	0.083544	0.199606	1689.470825
4210.761972	0.902908	0.188295	435.201508
4210.762905	0.512234	0.188295	913.115723
4210.763822	0.087729	0.188295	993.563660
4210.764720	0.083397	0.188295	1068.454346
4210.765674	0.083441	0.188295	1148.057251
4210.766611	0.083445	0.188295	1226.245117
4210.767511	0.083492	0.188295	1301.388306
4210.768427	0.083430	0.188295	1377.810303
4210.769367	0.083416	0.188295	1456.220947
4210.770283	0.083427	0.188295	1532.639648
4210.771174	0.083419	0.188295	1606.966187
4210.772126	0.083368	0.188295	1686.332397
4211.755719	0.855850	0.197125	372.294586
4211.756611	0.614740	0.197125	920.642578
4211.757590	0.088480	0.197125	1007.264709
4211.758495	0.083492	0.197125	1082.825317
4211.759417	0.083555	0.197125	1159.862793
4211.760311	0.083540	0.197125	1234.547607
4211.761258	0.083485	0.197125	1313.608032
4211.762152	0.083492	0.197125	1388.250244
4211.763042	0.083558	0.197125	1462.617187
4211.763978	0.083624	0.197125	1540.889526
4211.764885	0.083511	0.197125	1616.633789
4211.765802	0.083496	0.197125	1693.199707
4212.803790	0.862672	0.191066	380.438385
4212.804693	0.606002	0.191066	927.658325
4212.805583	0.091509	0.191066	1009.101135
4212.806523	0.083485	0.191066	1087.577148
4212.807432	0.083474	0.191066	1163.455078
4212.808340	0.083427	0.191066	1239.206299
4212.809232	0.083478	0.191066	1313.668457
4212.810185	0.083562	0.191066	1393.303101
4212.811092	0.083401	0.191066	1468.947754
4212.811994	0.083456	0.191066	1544.224854
4212.812934	0.083507	0.191066	1622.721558
4212.813824	0.083470	0.191066	1697.010254
