time (s)	coil I (A)	last det (V)	int current (uC)
9398.769114	0.872399	0.037249	384.727814
9398.770013	1.312668	0.037249	1564.816772
9398.771001	1.321535	0.037249	2870.492920
9398.771917	1.294457	0.037249	4056.215332
9398.772812	1.266401	0.037249	5189.644531
9398.773779	0.867297	0.037249	6028.321289
9398.774721	0.109321	0.037249	6131.301758
9398.775622	0.083459	0.037249	6206.498535
9398.776545	0.083529	0.037249	6283.595703
9398.777477	0.083525	0.037249	6361.441406
9398.778406	0.083588	0.037249	6439.094238
9398.779292	0.083606	0.037249	6513.168945
9398.780229	0.083529	0.037249	6591.435547
9398.781167	0.083533	0.037249	6669.789062
9398.782078	0.083588	0.037249	6745.937500
9398.782973	0.083547	0.037249	6820.712402
9399.727563	0.867330	0.052818	382.492676
9399.728548	1.315887	0.052818	1678.641846
9399.729461	1.321425	0.052818	2885.102539
9399.730396	1.293574	0.052818	4094.594482
9399.731293	1.265438	0.052818	5229.692383
9399.732241	0.857216	0.052818	6042.333008
9399.733145	0.111940	0.052818	6143.526367
9399.734038	0.083350	0.052818	6217.957520
9399.734969	0.083496	0.052818	6295.692383
9399.735890	0.083540	0.052818	6372.632812
9399.736791	0.083467	0.052818	6447.836426
9399.737680	0.083478	0.052818	6522.048340
9399.738624	0.083438	0.052818	6600.813477
9399.739532	0.083580	0.052818	6676.704590
9399.740453	0.083500	0.052818	6753.607910
9399.741338	0.083525	0.052818	6827.527832
9400.808916	0.869722	0.036729	387.895844
9400.809812	1.312090	0.036729	1563.528320
9400.810757	1.323076	0.036729	2813.835205
9400.811676	1.295574	0.036729	4004.467285
9400.812585	1.267299	0.036729	5156.441406
9400.813486	0.967467	0.036729	6028.129395
9400.814432	0.123864	0.036729	6145.304199
9400.815334	0.083459	0.036729	6220.584473
9400.816231	0.083540	0.036729	6295.520020
9400.817125	0.083492	0.036729	6370.162109
9400.818068	0.083635	0.036729	6449.030273
9400.818983	0.083511	0.036729	6525.442383
9400.819882	0.083507	0.036729	6600.515137
9400.820807	0.083606	0.036729	6677.850586
9400.821714	0.083529	0.036729	6753.611328
9400.822620	0.083558	0.036729	6829.315430
9401.773554	0.883967	0.048286	411.928741
9401.774467	1.315034	0.048286	1612.554932
9401.775363	1.322831	0.048286	2797.811279
9401.776322	1.294977	0.048286	4039.694092
9401.777260	1.265585	0.048286	5226.812500
9401.778159	0.902314	0.048286	6037.993164
9401.779090	0.119553	0.048286	6149.297363
9401.780018	0.083463	0.048286	6226.750977
9401.780950	0.083540	0.048286	6304.610352
9401.781848	0.083536	0.048286	6379.625977
9401.782766	0.083514	0.048286	6456.291992
9401.783703	0.083617	0.048286	6534.641113
9401.784624	0.083606	0.048286	6611.642090
9401.785514	0.083551	0.048286	6686.002441
9401.786459	0.083558	0.048286	6764.964844
9401.787393	0.083569	0.048286	6843.018555
9402.851787	0.864141	0.040314	380.221863
9402.852689	1.311749	0.040314	1563.419678
9402.853581	1.324014	0.040314	2744.439941
9402.854557	1.295669	0.040314	4009.012695
9402.855478	1.266848	0.040314	5175.779785
9402.856388	0.945787	0.040314	6036.446289
9402.857275	0.130052	0.040314	6151.802734
9402.858211	0.083478	0.040314	6229.937988
9402.859108	0.083536	0.040314	6304.870117
9402.859994	0.083566	0.040314	6378.909180
9402.860924	0.083606	0.040314	6456.662598
9402.861836	0.083467	0.040314	6532.784180
9402.862740	0.083610	0.040314	6608.367187
9402.863630	0.083584	0.040314	6682.756836
9402.864579	0.083679	0.040314	6762.168457
9402.865483	0.083511	0.040314	6837.662109
9403.814387	0.890072	0.049986	421.894165
9403.815288	1.314917	0.049986	1606.634399
9403.816232	1.321992	0.049986	2854.595215
9403.817165	1.294124	0.049986	4062.012451
9403.818085	1.265460	0.049986	5226.235840
9403.818998	0.888885	0.049986	6037.788086
9403.819934	0.113119	0.049986	6143.667480
9403.820860	0.083438	0.049986	6220.930664
9403.821762	0.083580	0.049986	6296.320312
9403.822690	0.083489	0.049986	6373.797852
9403.823625	0.083500	0.049986	6451.870117
9403.824545	0.083536	0.049986	6528.723633
9403.825439	0.083555	0.049986	6603.421387
9403.826388	0.083485	0.049986	6682.648926
9403.827310	0.083518	0.049986	6759.652344
9403.828208	0.083573	0.049986	6834.700684
9404.904953	0.887966	0.036967	431.551636
9404.905867	1.316316	0.036967	1634.664307
9404.906790	1.321791	0.036967	2854.677246
9404.907692	1.295017	0.036967	4022.782715
9404.908652	1.265185	0.036967	5237.360840
9404.909568	0.867986	0.036967	6032.435547
9404.910490	0.110936	0.036967	6134.718750
9404.911377	0.083423	0.036967	6208.714844
9404.912330	0.083485	0.036967	6288.276367
9404.913258	0.083544	0.036967	6365.804687
9404.914150	0.083621	0.036967	6440.394043
9404.915098	0.083481	0.036967	6519.534668
9404.916006	0.083529	0.036967	6595.378906
9404.916928	0.083503	0.036967	6672.369141
9404.917822	0.083558	0.036967	6747.070312
9404.918761	0.083467	0.036967	6825.445801
9405.850120	0.878013	0.056629	436.372284
9405.851027	1.317202	0.056629	1631.074707
9405.851943	1.321864	0.056629	2841.902100
9405.852848	1.295112	0.056629	4013.978516
9405.853785	1.266090	0.056629	5200.304687
9405.854708	0.900062	0.056629	6031.062012
9405.855611	0.118044	0.056629	6137.656250
9405.856497	0.083368	0.056629	6211.520020
9405.857431	0.083610	0.056629	6289.611328
9405.858333	0.083496	0.056629	6364.924805
9405.859228	0.083540	0.056629	6439.693359
9405.860170	0.083676	0.056629	6518.515625
9405.861071	0.083529	0.056629	6593.775391
9405.861970	0.083514	0.056629	6668.854980
9405.862863	0.083496	0.056629	6743.416992
9405.863805	0.083606	0.056629	6822.173828
9406.956018	0.902135	0.035988	429.416260
9406.956947	1.316902	0.035988	1652.818115
9406.957876	1.321648	0.035988	2880.628906
9406.958772	1.294812	0.035988	4040.780273
9406.959700	1.265933	0.035988	5215.565918
9406.960663	0.855802	0.035988	6039.703125
9406.961591	0.107871	0.035988	6139.807617
9406.962481	0.083430	0.035988	6214.060547
9406.963420	0.083507	0.035988	6292.473633
9406.964347	0.083518	0.035988	6369.895020
9406.965245	0.083525	0.035988	6444.900879
9406.966166	0.083588	0.035988	6521.885254
9406.967102	0.083474	0.035988	6600.017090
9406.968025	0.083514	0.035988	6677.101074
9406.968920	0.083529	0.035988	6751.859375
9406.969861	0.083562	0.035988	6830.491211
9407.893961	0.853553	0.052625	367.881561
9407.894922	1.314734	0.052625	1631.340820
9407.895825	1.322399	0.052625	2825.466797
9407.896746	1.295164	0.052625	4018.312500
9407.897652	1.266570	0.052625	5165.824707
9407.898610	0.894122	0.052625	6022.394043
9407.899549	0.112874	0.052625	6128.382324
9407.900437	0.083375	0.052625	6202.419434
9407.901383	0.083489	0.052625	6281.399902
9407.902290	0.083478	0.052625	6357.114258
9407.903211	0.083547	0.052625	6434.061523
9407.904100	0.083544	0.052625	6508.332031
9407.905060	0.083555	0.052625	6588.544434
9407.905959	0.083492	0.052625	6663.604004
9407.906875	0.083511	0.052625	6740.099609
9407.907768	0.083503	0.052625	6814.667969
9408.995784	0.856388	0.035190	372.528748
9408.996677	1.310815	0.035190	1543.086914
9408.997650	1.322274	0.035190	2829.659668
9408.998566	1.295182	0.035190	4016.046387
9408.999467	1.267050	0.035190	5157.658203
9409.000413	0.927081	0.035190	6034.677246
9409.001317	0.124069	0.035190	6146.835449
9409.002211	0.083416	0.035190	6221.409180
9409.003099	0.083496	0.035190	6295.553711
9409.004051	0.083632	0.035190	6375.170898
9409.004953	0.083511	0.035190	6450.497559
9409.005858	0.083529	0.035190	6526.091309
9409.006751	0.083514	0.035190	6600.669922
9409.007710	0.083536	0.035190	6680.781250
9409.008614	0.083525	0.035190	6756.288086
9409.009503	0.083500	0.035190	6830.519531
9409.947107	0.874874	0.054808	395.443176
9409.948010	1.312859	0.054808	1580.954590
9409.948909	1.322871	0.054808	2770.215820
9409.949861	1.295251	0.054808	4003.295166
9409.950799	1.266270	0.054808	5191.056152
9409.951710	0.923935	0.054808	6032.761230
9409.952637	0.120487	0.054808	6144.452637
9409.953582	0.083386	0.054808	6223.252441
9409.954500	0.083544	0.054808	6299.945312
9409.955387	0.083536	0.054808	6374.041992
9409.956328	0.083463	0.054808	6452.580566
9409.957263	0.083500	0.054808	6530.652832
9409.958164	0.083591	0.054808	6605.968750
9409.959090	0.083514	0.054808	6683.303223
9409.960023	0.083522	0.054808	6761.229004
9409.960944	0.083573	0.054808	6838.199707
9411.033543	0.858860	0.035928	372.745178
9411.034439	1.310936	0.035928	1547.344238
9411.035406	1.322164	0.035928	2825.876953
9411.036350	1.294358	0.035928	4047.750977
9411.037252	1.266295	0.035928	5189.949219
9411.038191	0.891357	0.035928	6026.933594
9411.039135	0.113588	0.035928	6134.160156
9411.040058	0.083434	0.035928	6211.169434
9411.040948	0.083518	0.035928	6285.500488
9411.041892	0.083573	0.035928	6364.393555
9411.042822	0.083628	0.035928	6442.167480
9411.043723	0.083602	0.035928	6517.493164
9411.044647	0.083525	0.035928	6594.670410
9411.045577	0.083540	0.035928	6672.362793
9411.046497	0.083573	0.035928	6749.250000
9411.047395	0.083580	0.035928	6824.305176
9411.997169	0.897869	0.049946	422.896118
9411.998072	1.314529	0.049946	1609.915649
9411.998965	1.322985	0.049946	2791.340820
9411.999895	1.295596	0.049946	3996.244873
9412.000830	1.266255	0.049946	5180.193359
9412.001749	0.925569	0.049946	6030.791016
9412.002640	0.125815	0.049946	6142.892578
9412.003574	0.083529	0.049946	6220.908691
9412.004483	0.083536	0.049946	6296.843262
9412.005378	0.083551	0.049946	6371.621582
9412.006266	0.083562	0.049946	6445.824707
9412.007215	0.083632	0.049946	6525.190918
9412.008114	0.083533	0.049946	6600.286621
9412.009000	0.083533	0.049946	6674.296387
9412.009935	0.083588	0.049946	6752.450684
9412.010853	0.083511	0.049946	6829.113770
9413.074391	0.873036	0.041579	392.866150
9413.075288	1.312185	0.041579	1569.896240
9413.076241	1.322494	0.041579	2830.232910
9413.077148	1.295614	0.041579	4005.354980
9413.078054	1.267284	0.041579	5153.514160
9413.078952	0.965900	0.041579	6020.892090
9413.079887	0.125848	0.041579	6138.560547
9413.080801	0.083522	0.041579	6214.899414
9413.081697	0.083511	0.041579	6289.725098
9413.082601	0.083489	0.041579	6365.198730
9413.083527	0.083591	0.041579	6442.604492
9413.084433	0.083518	0.041579	6518.271973
9413.085327	0.083606	0.041579	6593.015625
9413.086269	0.083610	0.041579	6671.775879
9413.087174	0.083577	0.041579	6747.412598
9413.088074	0.083558	0.041579	6822.615234
9414.035953	0.882081	0.050421	414.578186
9414.036859	1.315287	0.050421	1606.228027
9414.037784	1.322205	0.050421	2829.267334
9414.038724	1.294490	0.050421	4046.087646
9414.039651	1.265610	0.050421	5219.308594
9414.040556	0.907573	0.050421	6040.662109
9414.041469	0.121329	0.050421	6151.436035
9414.042411	0.083416	0.050421	6230.013672
9414.043326	0.083588	0.050421	6306.496582
9414.044216	0.083547	0.050421	6380.853516
9414.045161	0.083573	0.050421	6459.830078
9414.046075	0.083533	0.050421	6536.179199
9414.046987	0.083580	0.050421	6612.404297
9414.047880	0.083558	0.050421	6687.021973
9414.048841	0.083525	0.050421	6767.290039
9414.049782	0.083529	0.050421	6845.891113
9415.128533	0.874299	0.035150	390.811768
9415.129433	1.312507	0.035150	1572.068359
9415.130386	1.322249	0.035150	2832.171387
9415.131299	1.295211	0.035150	4014.699219
9415.132222	1.266742	0.035150	5183.902344
9415.133123	0.936288	0.035150	6027.497559
9415.134070	0.120337	0.035150	6141.456543
9415.134968	0.083412	0.035150	6216.360352
9415.135855	0.083522	0.035150	6290.444336
9415.136790	0.083628	0.035150	6368.636230
9415.137691	0.083496	0.035150	6443.866211
9415.138615	0.083500	0.035150	6521.020020
9415.139502	0.083544	0.035150	6595.123047
9415.140480	0.083613	0.035150	6676.896973
9415.141387	0.083522	0.035150	6752.651367
9415.142316	0.083643	0.035150	6830.355469
9416.070605	0.866682	0.053966	384.806885
9416.071497	1.311328	0.053966	1554.511475
9416.072473	1.321904	0.053966	2844.689941
9416.073415	1.293922	0.053966	4063.564453
9416.074319	1.265819	0.053966	5207.864746
9416.075260	0.875468	0.053966	6031.679687
9416.076204	0.111299	0.053966	6136.745605
9416.077123	0.083412	0.053966	6213.400879
9416.078007	0.083448	0.053966	6287.169434
9416.078944	0.083434	0.053966	6365.347168
9416.079874	0.083500	0.053966	6443.001953
9416.080788	0.083514	0.053966	6519.333984
9416.081687	0.083448	0.053966	6594.354004
9416.082639	0.083529	0.053966	6673.873535
9416.083541	0.083632	0.053966	6749.309082
9416.084443	0.083481	0.053966	6824.609375
9417.178609	0.880137	0.031295	415.424530
9417.179518	1.315100	0.031295	1610.850586
9417.180410	1.322926	0.031295	2790.900635
9417.181369	1.294878	0.031295	4032.688477
9417.182310	1.265610	0.031295	5223.627930
9417.183221	0.897836	0.031295	6041.556152
9417.184140	0.119147	0.031295	6151.051758
9417.185073	0.083478	0.031295	6228.936523
9417.186001	0.083511	0.031295	6306.434570
9417.186899	0.083595	0.031295	6381.502930
9417.187821	0.083496	0.031295	6458.486328
9417.188764	0.083533	0.031295	6537.257812
9417.189678	0.083544	0.031295	6613.616699
9417.190575	0.083496	0.031295	6688.512695
9417.191525	0.083496	0.031295	6767.833984
9417.192457	0.083544	0.031295	6845.696777
9418.117592	0.869388	0.052778	389.485992
9418.118493	1.312694	0.052778	1572.223267
9418.119433	1.322845	0.052778	2815.697998
9418.120349	1.295442	0.052778	4002.322754
9418.121250	1.267416	0.052778	5144.264648
9418.122152	0.975787	0.052778	6024.424805
9418.123108	0.123508	0.052778	6142.498535
9418.124018	0.083397	0.052778	6218.390137
9418.124916	0.083492	0.052778	6293.366211
9418.125811	0.083470	0.052778	6368.072266
9418.126755	0.083496	0.052778	6446.892578
9418.127664	0.083467	0.052778	6522.763672
9418.128556	0.083481	0.052778	6597.229004
9418.129494	0.083492	0.052778	6675.544922
9418.130396	0.083558	0.052778	6750.914551
9418.131292	0.083558	0.052778	6825.782715
9419.217359	0.862145	0.035674	380.205841
9419.218255	1.310896	0.035674	1554.768677
9419.219223	1.322325	0.035674	2834.779785
9419.220132	1.295186	0.035674	4012.103516
9419.221039	1.267101	0.035674	5161.363770
9419.221939	0.938441	0.035674	6005.960937
9419.222874	0.124581	0.035674	6122.444336
9419.223786	0.083368	0.035674	6198.476074
9419.224681	0.083445	0.035674	6273.159180
9419.225614	0.083518	0.035674	6351.081543
9419.226522	0.083540	0.035674	6426.936035
9419.227425	0.083536	0.035674	6502.369141
9419.228315	0.083544	0.035674	6576.723145
9419.229257	0.083507	0.035674	6655.386719
9419.230162	0.083514	0.035674	6730.967285
9419.231062	0.083551	0.035674	6806.163086
9420.167662	0.886571	0.054023	419.348114
9420.168605	1.317429	0.054023	1661.683838
9420.169532	1.321132	0.054023	2886.372803
9420.170427	1.294230	0.054023	4044.708496
9420.171381	1.264959	0.054023	5251.479004
9420.172331	0.837257	0.054023	6046.873047
9420.173227	0.109684	0.054023	6145.149902
9420.174144	0.083335	0.054023	6221.567871
9420.175075	0.083438	0.054023	6299.248047
9420.175989	0.083492	0.054023	6375.560059
9420.176875	0.083463	0.054023	6449.508301
9420.177805	0.083547	0.054023	6527.207520
9420.178731	0.083456	0.054023	6604.487793
9420.179650	0.083514	0.054023	6681.237305
9420.180536	0.083474	0.054023	6755.195312
9420.181483	0.083441	0.054023	6834.213867
9421.255138	0.876951	0.037438	395.504761
9421.256036	1.312064	0.037438	1573.738403
9421.257012	1.321589	0.037438	2863.609619
9421.257914	1.294435	0.037438	4031.189941
9421.258850	1.265742	0.037438	5215.924805
9421.259754	0.878273	0.037438	6009.883301
9421.260708	0.110647	0.037438	6115.440430
9421.261629	0.083313	0.037438	6192.171875
9421.262525	0.083467	0.037438	6266.958008
9421.263463	0.083547	0.037438	6345.325195
9421.264373	0.083456	0.037438	6421.270020
9421.265283	0.083463	0.037438	6497.221680
9421.266172	0.083518	0.037438	6571.469238
9421.267126	0.083448	0.037438	6651.079102
9421.268046	0.083445	0.037438	6727.848145
9421.268936	0.083467	0.037438	6802.133789
9422.219731	0.875101	0.050478	392.920502
9422.220634	1.312526	0.050478	1578.131226
9422.221527	1.323058	0.050478	2759.622070
9422.222498	1.295131	0.050478	4017.193848
9422.223420	1.266343	0.050478	5184.761719
9422.224328	0.939869	0.050478	6038.163086
9422.225263	0.126709	0.050478	6156.635742
9422.226168	0.083438	0.050478	6232.146484
9422.227070	0.083485	0.050478	6307.450195
9422.227956	0.083555	0.050478	6381.479492
9422.228897	0.083547	0.050478	6460.097656
9422.229804	0.083507	0.050478	6535.838379
9422.230705	0.083474	0.050478	6611.048340
9422.231593	0.083555	0.050478	6685.245117
9422.232529	0.083573	0.050478	6763.469238
9422.233439	0.083577	0.050478	6839.523926
9423.294971	0.908969	0.039698	433.577972
9423.295871	1.314950	0.039698	1617.032959
9423.296768	1.322512	0.039698	2803.326416
9423.297718	1.294878	0.039698	4033.460449
9423.298648	1.265764	0.039698	5210.621094
9423.299562	0.906233	0.039698	6038.917969
9423.300486	0.116902	0.039698	6146.935059
9423.301417	0.083405	0.039698	6224.584473
9423.302341	0.083448	0.039698	6301.690918
9423.303234	0.083474	0.039698	6376.233398
9423.304178	0.083500	0.039698	6455.057129
9423.305115	0.083529	0.039698	6533.323730
9423.306016	0.083481	0.039698	6608.540527
9423.306934	0.083566	0.039698	6685.253906
9423.307875	0.083452	0.039698	6763.782227
9423.308801	0.083558	0.039698	6841.157227
9424.262619	0.874182	0.051295	387.262695
9424.263522	1.312460	0.051295	1572.413818
9424.264417	1.323589	0.051295	2757.025879
9424.265355	1.296647	0.051295	3973.280518
9424.266287	1.267156	0.051295	5154.269531
9424.267204	0.953280	0.051295	6028.427246
9424.268091	0.132546	0.051295	6145.996094
9424.269042	0.083383	0.051295	6225.292969
9424.269954	0.083514	0.051295	6301.458008
9424.270848	0.083503	0.051295	6376.109863
9424.271741	0.083566	0.051295	6450.733887
9424.272678	0.083551	0.051295	6529.020996
9424.273582	0.083558	0.051295	6604.557617
9424.274474	0.083577	0.051295	6679.107910
9424.275407	0.083628	0.051295	6757.132812
9424.276321	0.083507	0.051295	6833.458496
9425.340935	0.927341	0.040600	464.597992
9425.341882	1.319037	0.040600	1713.725952
9425.342803	1.320641	0.040600	2930.036133
9425.343699	1.293311	0.040600	4088.842285
9425.344637	1.264233	0.040600	5274.693359
9425.345591	0.818390	0.040600	6055.437500
9425.346488	0.106890	0.040600	6151.317383
9425.347408	0.083342	0.040600	6227.992187
9425.348346	0.083474	0.040600	6306.291016
9425.349263	0.083507	0.040600	6382.867187
9425.350153	0.083514	0.040600	6457.194824
9425.351107	0.083503	0.040600	6536.856934
9425.352048	0.083577	0.040600	6615.502441
9425.352946	0.083507	0.040600	6690.491699
9425.353863	0.083518	0.040600	6767.077637
9425.354794	0.083485	0.040600	6844.802246
9426.306527	0.890599	0.050446	410.566315
9426.307445	1.314576	0.050446	1617.347412
9426.308379	1.322014	0.050446	2852.108398
9426.309291	1.294761	0.050446	4032.930176
9426.310230	1.265244	0.050446	5220.994141
9426.311161	0.885967	0.050446	6045.829102
9426.312050	0.117883	0.050446	6150.627441
9426.313003	0.083412	0.050446	6230.119141
9426.313901	0.083606	0.050446	6305.197266
9426.314823	0.083555	0.050446	6382.234863
9426.315706	0.083573	0.050446	6456.029785
9426.316649	0.083536	0.050446	6534.804687
9426.317571	0.083566	0.050446	6611.852051
9426.318471	0.083577	0.050446	6687.071289
9426.319408	0.083705	0.050446	6765.502930
9426.320313	0.083577	0.050446	6841.139648
9427.385818	0.874750	0.042139	391.887878
9427.386725	1.312753	0.042139	1582.554443
9427.387619	1.323135	0.042139	2765.437012
9427.388559	1.296046	0.042139	3983.720215
9427.389479	1.267024	0.042139	5149.382324
9427.390391	0.962153	0.042139	6026.866211
9427.391328	0.131693	0.042139	6150.262695
9427.392234	0.083459	0.042139	6225.876953
9427.393127	0.083434	0.042139	6300.383301
9427.394019	0.083558	0.042139	6374.917480
9427.394971	0.083551	0.042139	6454.458008
9427.395873	0.083569	0.042139	6529.837402
9427.396773	0.083536	0.042139	6605.020020
9427.397660	0.083489	0.042139	6679.074707
9427.398593	0.083540	0.042139	6757.017578
9427.399499	0.083485	0.042139	6832.655273
9428.349385	0.866902	0.050417	378.836121
9428.350354	1.315935	0.050417	1653.977295
9428.351276	1.321505	0.050417	2872.405029
9428.352175	1.294541	0.050417	4036.197266
9428.353097	1.266112	0.050417	5203.552734
9428.354052	0.878203	0.050417	6042.236816
9428.354974	0.112606	0.050417	6146.059570
9428.355866	0.083401	0.050417	6220.453125
9428.356813	0.083489	0.050417	6299.517090
9428.357740	0.083478	0.050417	6376.900879
9428.358630	0.083555	0.050417	6451.264648
9428.359549	0.083514	0.050417	6528.014160
9428.360483	0.083536	0.050417	6606.037109
9428.361397	0.083588	0.050417	6682.436035
9428.362293	0.083555	0.050417	6757.301270
9428.363245	0.083489	0.050417	6836.782715
9429.431833	0.933193	0.040314	482.460968
9429.432754	1.318568	0.040314	1696.862183
9429.433652	1.321267	0.040314	2883.360107
9429.434547	1.294405	0.040314	4041.853027
9429.435484	1.265592	0.040314	5227.712891
9429.436403	0.887684	0.040314	6043.494629
9429.437322	0.113606	0.040314	6147.898437
9429.438225	0.083346	0.040314	6223.159668
9429.439178	0.083514	0.040314	6302.749023
9429.440082	0.083423	0.040314	6378.163086
9429.440972	0.083514	0.040314	6452.490723
9429.441923	0.083525	0.040314	6531.923340
9429.442826	0.083489	0.040314	6607.313477
9429.443718	0.083485	0.040314	6681.782227
9429.444608	0.083566	0.040314	6756.155762
9429.445542	0.083522	0.040314	6834.165039
9430.393329	0.876112	0.047030	416.153229
9430.394265	1.317176	0.047030	1649.030396
9430.395192	1.321307	0.047030	2873.882324
9430.396089	1.294398	0.047030	4034.957520
9430.397007	1.266057	0.047030	5197.198242
9430.397956	0.882466	0.047030	6034.658203
9430.398879	0.111998	0.047030	6138.032715
9430.399764	0.083394	0.047030	6211.835937
9430.400688	0.083467	0.047030	6288.959473
9430.401629	0.083492	0.047030	6367.525879
9430.402549	0.083547	0.047030	6444.389648
9430.403445	0.083438	0.047030	6519.149414
9430.404395	0.083481	0.047030	6598.457031
9430.405329	0.083492	0.047030	6676.438965
9430.406227	0.083419	0.047030	6751.349609
9430.407143	0.083463	0.047030	6827.801758
9431.475718	0.898931	0.044222	445.869598
9431.476640	1.316594	0.044222	1659.769531
9431.477564	1.320981	0.044222	2880.356445
9431.478460	1.294124	0.044222	4039.891113
9431.479411	1.264589	0.044222	5242.514648
9431.480340	0.848031	0.044222	6030.335449
9431.481253	0.109486	0.044222	6130.296387
9431.482141	0.083328	0.044222	6204.291504
9431.483102	0.083438	0.044222	6284.475098
9431.484017	0.083430	0.044222	6360.813477
9431.484909	0.083489	0.044222	6435.285645
9431.485839	0.083463	0.044222	6512.906250
9431.486751	0.083405	0.044222	6588.971191
9431.487677	0.083492	0.044222	6666.285156
9431.488572	0.083507	0.044222	6741.023926
9431.489518	0.083503	0.044222	6820.018066
9432.435150	0.865089	0.046840	382.369354
9432.436053	1.311753	0.046840	1566.882324
9432.436949	1.323340	0.046840	2752.594727
9432.437927	1.295336	0.046840	4019.433105
9432.438844	1.266453	0.046840	5180.770508
9432.439755	0.941631	0.046840	6038.596191
9432.440657	0.128156	0.046840	6154.192383
9432.441580	0.083368	0.046840	6231.141113
9432.442492	0.083481	0.046840	6307.276367
9432.443386	0.083492	0.046840	6381.918457
9432.444313	0.083595	0.046840	6459.411133
9432.445226	0.083544	0.046840	6535.686523
9432.446131	0.083507	0.046840	6611.260254
9432.447025	0.083496	0.046840	6685.905762
9432.447966	0.083555	0.046840	6764.530762
9432.448871	0.083522	0.046840	6840.118164
9433.519607	0.895814	0.041970	430.886627
9433.520544	1.316605	0.041970	1664.545654
9433.521473	1.321165	0.041970	2891.907715
9433.522366	1.294369	0.041970	4047.779297
9433.523287	1.265460	0.041970	5213.268066
9433.524247	0.859618	0.041970	6038.500977
9433.525158	0.110614	0.041970	6139.270508
9433.526052	0.083368	0.041970	6213.801270
9433.527001	0.083430	0.041970	6292.976562
9433.527935	0.083430	0.041970	6370.900391
9433.528841	0.083525	0.041970	6446.574219
9433.529758	0.083438	0.041970	6523.086426
9433.530696	0.083599	0.041970	6601.501953
9433.531612	0.083492	0.041970	6677.980957
9433.532498	0.083624	0.041970	6752.072266
9433.533427	0.083533	0.041970	6829.674316
9434.482131	0.870308	0.049652	388.157196
9434.483037	1.312632	0.049652	1577.401733
9434.483933	1.323256	0.049652	2763.038818
9434.484880	1.296090	0.049652	3990.436035
9434.485805	1.266969	0.049652	5162.382324
9434.486739	0.931417	0.049652	6032.326172
9434.487630	0.127745	0.049652	6146.147461
9434.488588	0.083430	0.049652	6226.073730
9434.489483	0.083503	0.049652	6300.809082
9434.490400	0.083496	0.049652	6377.375000
9434.491292	0.083441	0.049652	6451.804687
9434.492246	0.083503	0.049652	6531.466797
9434.493150	0.083492	0.049652	6606.943848
9434.494041	0.083525	0.049652	6681.364746
9434.494967	0.083529	0.049652	6758.712891
9434.495882	0.083478	0.049652	6835.095215
9435.562457	0.865510	0.040729	383.421051
9435.563348	1.311156	0.040729	1551.661011
9435.564290	1.322615	0.040729	2797.563965
9435.565212	1.295479	0.040729	3991.995117
9435.566127	1.267082	0.040729	5151.375488
9435.567054	0.925148	0.040729	6008.987305
9435.567983	0.120974	0.040729	6121.372070
9435.568894	0.083328	0.040729	6197.283691
9435.569786	0.083496	0.040729	6271.762207
9435.570736	0.083533	0.040729	6351.118164
9435.571639	0.083463	0.040729	6426.485352
9435.572538	0.083467	0.040729	6501.521973
9435.573422	0.083386	0.040729	6575.235352
9435.574352	0.083588	0.040729	6652.971680
9435.575255	0.083500	0.040729	6728.372070
9435.576147	0.083427	0.040729	6802.788574
9436.529114	0.885769	0.048516	398.596069
9436.530062	1.316876	0.048516	1646.994629
9436.531003	1.321201	0.048516	2890.245117
9436.531901	1.294145	0.048516	4052.387695
9436.532848	1.264680	0.048516	5250.040039
9436.533791	0.850371	0.048516	6051.939941
9436.534687	0.111335	0.048516	6151.696289
9436.535616	0.083441	0.048516	6229.212891
9436.536552	0.083427	0.048516	6307.300293
9436.537463	0.083470	0.048516	6383.341797
9436.538353	0.083518	0.048516	6457.672852
9436.539291	0.083500	0.048516	6535.995605
9436.540223	0.083522	0.048516	6613.837891
9436.541122	0.083533	0.048516	6688.933594
9436.542046	0.083525	0.048516	6766.110840
9436.542986	0.083492	0.048516	6844.593750
9437.604361	0.922438	0.042514	463.986145
9437.605284	1.314368	0.042514	1677.147461
9437.606190	1.317367	0.042514	2870.681885
9437.607087	1.290714	0.042514	4028.452637
9437.608051	1.261271	0.042514	5244.317383
9437.608971	0.866451	0.042514	6041.452637
9437.609863	0.113137	0.042514	6142.371094
9437.610784	0.083156	0.042514	6218.957520
9437.611692	0.083163	0.042514	6294.469238
9437.612586	0.083302	0.042514	6368.941406
9437.613475	0.083328	0.042514	6443.019531
9437.614409	0.083137	0.042514	6520.669922
9437.615328	0.083221	0.042514	6597.150391
9437.616223	0.083547	0.042514	6671.925293
9437.617115	0.083218	0.042514	6746.155762
9437.618071	0.083247	0.042514	6825.739746
9438.575051	0.868359	0.047352	382.946503
9438.576024	1.315708	0.047352	1663.130493
9438.576952	1.320158	0.047352	2888.236816
9438.577847	1.293420	0.047352	4045.848145
9438.578777	1.265083	0.047352	5222.375000
9438.579733	0.851594	0.047352	6036.499023
9438.580658	0.108483	0.047352	6136.845703
9438.581546	0.083273	0.047352	6210.791992
9438.582484	0.083463	0.047352	6289.080566
9438.583418	0.083419	0.047352	6366.994141
9438.584332	0.083478	0.047352	6443.292969
9438.585230	0.083500	0.047352	6518.275879
9438.586159	0.083423	0.047352	6595.775879
9438.587102	0.083430	0.047352	6674.450684
9438.588003	0.083507	0.047352	6749.690430
9438.588906	0.083430	0.047352	6825.027832
9439.650250	0.867587	0.041342	380.870544
9439.651205	1.315492	0.041342	1637.165283
9439.652124	1.321146	0.041342	2851.298828
9439.653019	1.295175	0.041342	4010.479980
9439.653961	1.266152	0.041342	5203.195312
9439.654891	0.908624	0.041342	6048.215820
9439.655791	0.120428	0.041342	6156.601562
9439.656682	0.083328	0.041342	6230.846680
9439.657626	0.083540	0.041342	6309.708496
9439.658531	0.083470	0.041342	6385.249023
9439.659431	0.083467	0.041342	6460.369141
9439.660324	0.083492	0.041342	6534.927734
9439.661265	0.083503	0.041342	6613.504395
9439.662169	0.083503	0.041342	6688.991699
9439.663058	0.083441	0.041342	6763.170898
9439.663987	0.083555	0.041342	6840.792969
9440.618991	0.871732	0.049604	408.842377
9440.619931	1.316506	0.049604	1646.358276
9440.620856	1.321014	0.049604	2868.296631
9440.621751	1.293574	0.049604	4026.045410
9440.622700	1.264325	0.049604	5225.889648
9440.623655	0.842314	0.049604	6030.299805
9440.624547	0.110563	0.049604	6128.921875
9440.625471	0.083496	0.049604	6206.072266
9440.626397	0.083569	0.049604	6283.457520
9440.627309	0.083525	0.049604	6359.632812
9440.628207	0.083555	0.049604	6434.665039
9440.629153	0.083529	0.049604	6513.683594
9440.630083	0.083536	0.049604	6591.372559
9440.630984	0.083646	0.049604	6666.737793
9440.631897	0.083588	0.049604	6743.053223
9440.632833	0.083584	0.049604	6821.287598
9441.696197	0.855930	0.037909	370.617767
9441.697139	1.312731	0.037909	1607.210205
9441.698066	1.322014	0.037909	2832.717285
9441.698977	1.295079	0.037909	4012.534668
9441.699874	1.266229	0.037909	5148.342285
9441.700850	0.898986	0.037909	6025.751953
9441.701753	0.118176	0.037909	6132.465332
9441.702644	0.083331	0.037909	6206.713379
9441.703545	0.083459	0.037909	6281.910156
9441.704469	0.083456	0.037909	6359.023437
9441.705368	0.083397	0.037909	6433.997559
9441.706256	0.083474	0.037909	6508.122559
9441.707188	0.083452	0.037909	6585.899902
9441.708107	0.083350	0.037909	6662.498047
9441.709013	0.083419	0.037909	6738.075684
9441.709899	0.083408	0.037909	6811.975586
9442.657741	0.857769	0.052174	373.129303
9442.658681	1.311837	0.052174	1606.256104
9442.659644	1.320571	0.052174	2877.966309
9442.660572	1.292794	0.052174	4077.679199
9442.661469	1.264933	0.052174	5212.323730
9442.662433	0.853110	0.052174	6034.722168
9442.663372	0.108453	0.052174	6136.560059
9442.664262	0.083295	0.052174	6210.692383
9442.665180	0.083540	0.052174	6287.382324
9442.666110	0.083441	0.052174	6364.982422
9442.667025	0.083434	0.052174	6441.324219
9442.667923	0.083390	0.052174	6516.208496
9442.668860	0.083470	0.052174	6594.420410
9442.669780	0.083536	0.052174	6671.273926
9442.670708	0.083529	0.052174	6748.789062
9442.671596	0.083434	0.052174	6822.878418
9443.748320	0.869930	0.033756	393.208557
9443.749217	1.312376	0.033756	1570.409424
9443.750110	1.323197	0.033756	2752.024414
9443.751060	1.295325	0.033756	3982.583008
9443.751985	1.266921	0.033756	5154.485352
9443.752888	0.966438	0.033756	6027.178711
9443.753807	0.134106	0.033756	6150.422363
9443.754748	0.083416	0.033756	6228.916504
9443.755647	0.083423	0.033756	6303.913574
9443.756537	0.083500	0.033756	6378.228516
9443.757484	0.083525	0.033756	6457.327148
9443.758388	0.083514	0.033756	6532.824219
9443.759302	0.083511	0.033756	6609.152832
9443.760193	0.083514	0.033756	6683.563965
9443.761131	0.083448	0.033756	6761.838867
9443.762036	0.083540	0.033756	6837.442383
9444.694473	0.857329	0.056947	374.652802
9444.695420	1.310760	0.056947	1615.942993
9444.696359	1.320432	0.056947	2855.828613
9444.697274	1.293615	0.056947	4039.485840
9444.698179	1.265376	0.056947	5184.651367
9444.699129	0.887223	0.056947	6027.513184
9444.700050	0.112134	0.056947	6130.788574
9444.700973	0.083243	0.056947	6207.622070
9444.701862	0.083346	0.056947	6281.716797
9444.702817	0.083383	0.056947	6361.347168
9444.703757	0.083474	0.056947	6439.812988
9444.704655	0.083533	0.056947	6514.825195
9444.705581	0.083459	0.056947	6592.108887
9444.706517	0.083448	0.056947	6670.216797
9444.707433	0.083496	0.056947	6746.699219
9444.708319	0.083503	0.056947	6820.683105
9445.798367	0.877950	0.033817	400.345398
9445.799266	1.312416	0.033817	1580.207275
9445.800179	1.321989	0.033817	2787.182861
9445.801147	1.293724	0.033817	4039.507812
9445.802062	1.265164	0.033817	5197.132324
9445.802965	0.925737	0.033817	6033.073242
9445.803902	0.120106	0.033817	6145.612793
9445.804810	0.083309	0.033817	6221.257812
9445.805742	0.083427	0.033817	6299.011230
9445.806635	0.083511	0.033817	6373.586426
9445.807584	0.083610	0.033817	6452.932129
9445.808480	0.083507	0.033817	6527.754395
9445.809369	0.083536	0.033817	6602.018066
9445.810291	0.083478	0.033817	6678.984375
9445.811220	0.083478	0.033817	6756.535156
9445.812127	0.083566	0.033817	6832.329102
9446.735358	0.901315	0.053596	440.742889
9446.736290	1.316979	0.053596	1668.167114
9446.737215	1.320714	0.053596	2889.827637
9446.738110	1.293417	0.053596	4047.435547
9446.739056	1.264113	0.053596	5243.286133
9446.740006	0.839385	0.053596	6040.701660
9446.740906	0.108746	0.053596	6138.573242
9446.741840	0.083350	0.053596	6216.421875
9446.742773	0.083500	0.053596	6294.327148
9446.743689	0.083412	0.053596	6370.732422
9446.744577	0.083419	0.053596	6444.808594
9446.745522	0.083481	0.053596	6523.698730
9446.746464	0.083364	0.053596	6602.228027
9446.747363	0.083463	0.053596	6677.261230
9446.748284	0.083438	0.053596	6754.106934
9446.749219	0.083459	0.053596	6832.141602
9447.838170	0.870875	0.039762	391.022980
9447.839066	1.311936	0.039762	1566.517578
9447.839984	1.322230	0.039762	2780.324951
9447.840933	1.294420	0.039762	4008.729736
9447.841847	1.266006	0.039762	5165.859375
9447.842749	0.956210	0.039762	6028.360352
9447.843675	0.128166	0.039762	6147.042480
9447.844590	0.083328	0.039762	6223.287109
9447.845515	0.083441	0.039762	6300.470215
9447.846407	0.083467	0.039762	6374.922363
9447.847352	0.083540	0.039762	6453.867676
9447.848243	0.083459	0.039762	6528.229980
9447.849130	0.083478	0.039762	6602.274902
9447.850052	0.083573	0.039762	6679.329102
9447.850976	0.083492	0.039762	6756.476074
9447.851878	0.083522	0.039762	6831.812500
9448.788477	0.917106	0.046699	449.381775
9448.789417	1.318041	0.046699	1688.340088
9448.790344	1.320297	0.046699	2912.255127
9448.791240	1.292483	0.046699	4070.319824
9448.792158	1.265175	0.046699	5231.750000
9448.793098	0.859167	0.046699	6039.367187
9448.794019	0.109808	0.046699	6140.500488
9448.794913	0.083383	0.046699	6215.044434
9448.795867	0.083416	0.046699	6294.623047
9448.796803	0.083408	0.046699	6372.693359
9448.797704	0.083412	0.046699	6447.847656
9448.798624	0.083375	0.046699	6524.552734
9448.799559	0.083470	0.046699	6602.597656
9448.800479	0.083485	0.046699	6679.403809
9448.801368	0.083416	0.046699	6753.560059
9448.802318	0.083485	0.046699	6832.871094
9449.872841	0.863606	0.046301	378.259430
9449.873805	1.315964	0.046301	1646.848999
9449.874715	1.321278	0.046301	2849.211914
9449.875636	1.293955	0.046301	4040.944580
9449.876540	1.266127	0.046301	5185.523437
9449.877500	0.882689	0.046301	6032.905273
9449.878412	0.113522	0.046301	6136.437012
9449.879304	0.083320	0.046301	6210.758789
9449.880244	0.083364	0.046301	6289.121094
9449.881160	0.083390	0.046301	6365.506348
9449.882078	0.083372	0.046301	6442.041504
9449.882965	0.083448	0.046301	6516.060547
9449.883898	0.083408	0.046301	6593.880371
9449.884808	0.083397	0.046301	6669.771973
9449.885724	0.083427	0.046301	6746.190430
9449.886622	0.083430	0.046301	6821.110840
9450.839545	0.908481	0.048472	431.528687
9450.840458	1.315342	0.048472	1632.435669
9450.841357	1.321714	0.048472	2820.656250
9450.842318	1.293589	0.048472	4063.795166
9450.843261	1.264695	0.048472	5256.402344
9450.844162	0.884535	0.048472	6053.368164
9450.845082	0.113774	0.048472	6158.040527
9450.846015	0.083357	0.048472	6235.812500
9450.846935	0.083555	0.048472	6312.682617
9450.847833	0.083489	0.048472	6387.655762
9450.848783	0.083445	0.048472	6466.928223
9450.849720	0.083452	0.048472	6545.123047
9450.850635	0.083456	0.048472	6621.485352
9450.851523	0.083547	0.048472	6695.675293
9450.852471	0.083657	0.048472	6774.982422
9450.853374	0.083485	0.048472	6850.369629
9451.912646	0.853828	0.045032	368.853760
9451.913600	1.311844	0.045032	1620.353394
9451.914514	1.322036	0.045032	2828.694336
9451.915433	1.294746	0.045032	4018.565918
9451.916336	1.266764	0.045032	5162.453613
9451.917292	0.899055	0.045032	6021.950195
9451.918209	0.116832	0.045032	6129.085449
9451.919131	0.083397	0.045032	6205.977539
9451.920020	0.083478	0.045032	6280.189453
9451.920978	0.083507	0.045032	6360.189453
9451.921893	0.083419	0.045032	6436.518066
9451.922784	0.083514	0.045032	6510.929199
9451.923714	0.083408	0.045032	6588.499023
9451.924626	0.083496	0.045032	6664.647461
9451.925545	0.083478	0.045032	6741.363770
9451.926443	0.083394	0.045032	6816.250977
9452.886495	0.885366	0.047074	400.185516
9452.887397	1.312895	0.047074	1584.417236
9452.888290	1.322816	0.047074	2765.691895
9452.889252	1.295200	0.047074	4011.674316
9452.890158	1.266914	0.047074	5159.498535
9452.891061	0.961318	0.047074	6027.568848
9452.891968	0.133085	0.047074	6148.276855
9452.892907	0.083390	0.047074	6226.580078
9452.893810	0.083405	0.047074	6301.894531
9452.894716	0.083522	0.047074	6377.565430
9452.895644	0.083595	0.047074	6455.141602
9452.896548	0.083470	0.047074	6530.599121
9452.897443	0.083500	0.047074	6605.331543
9452.898329	0.083481	0.047074	6679.295898
9452.899267	0.083573	0.047074	6757.687500
9452.900172	0.083533	0.047074	6833.284668
9453.960666	0.882382	0.039279	394.424561
9453.961632	1.317111	0.039279	1666.753418
9453.962555	1.321249	0.039279	2886.266113
9453.963450	1.293944	0.039279	4044.346191
9453.964397	1.264772	0.039279	5242.084961
9453.965349	0.850012	0.039279	6051.296387
9453.966244	0.111691	0.039279	6151.259766
9453.967171	0.083375	0.039279	6228.548828
9453.968106	0.083463	0.039279	6306.586914
9453.969035	0.083507	0.039279	6384.165039
9453.969926	0.083518	0.039279	6458.579590
9453.970840	0.083566	0.039279	6534.958496
9453.971776	0.083591	0.039279	6613.200195
9453.972689	0.083551	0.039279	6689.482422
9453.973588	0.083544	0.039279	6764.588379
9453.974539	0.083588	0.039279	6844.080078
9454.922243	0.916373	0.053894	452.688416
9454.923152	1.316308	0.053894	1649.212891
9454.924055	1.321776	0.053894	2842.776855
9454.924955	1.294728	0.053894	4008.031738
9454.925917	1.265350	0.053894	5225.298828
9454.926845	0.886366	0.053894	6047.846680
9454.927743	0.116323	0.053894	6152.305176
9454.928673	0.083346	0.053894	6229.816895
9454.929581	0.083558	0.053894	6305.687988
9454.930481	0.083511	0.053894	6380.847656
9454.931369	0.083569	0.053894	6455.057129
9454.932311	0.083577	0.053894	6533.786133
9454.933208	0.083525	0.053894	6608.708496
9454.934104	0.083529	0.053894	6683.550293
9454.934994	0.083511	0.053894	6757.875000
9454.935947	0.083621	0.053894	6837.565430
9456.014830	0.876504	0.032971	411.956818
9456.015740	1.314631	0.032971	1608.271362
9456.016640	1.322241	0.032971	2798.288574
9456.017586	1.294695	0.032971	4023.069824
9456.018529	1.265120	0.032971	5216.077637
9456.019446	0.892866	0.032971	6034.835937
9456.020352	0.118246	0.032971	6141.966797
9456.021279	0.083324	0.032971	6219.208008
9456.022213	0.083489	0.032971	6297.186523
9456.023103	0.083463	0.032971	6371.468750
9456.024027	0.083416	0.032971	6448.544922
9456.024958	0.083456	0.032971	6526.242187
9456.025874	0.083485	0.032971	6602.714355
9456.026771	0.083485	0.032971	6677.600586
9456.027720	0.083489	0.032971	6756.831543
9456.028667	0.083459	0.032971	6835.867676
9456.960976	0.858351	0.055135	378.532715
9456.961867	1.310815	0.055135	1546.469238
9456.962817	1.322366	0.055135	2802.716553
9456.963732	1.295581	0.055135	3988.173340
9456.964629	1.267452	0.055135	5125.078125
9456.965580	0.946809	0.055135	6025.493652
9456.966495	0.125072	0.055135	6139.934570
9456.967398	0.083405	0.055135	6215.249023
9456.968286	0.083529	0.055135	6289.422852
9456.969226	0.083525	0.055135	6367.936523
9456.970138	0.083514	0.055135	6444.101562
9456.971037	0.083525	0.055135	6519.190918
9456.971930	0.083518	0.055135	6593.772461
9456.972871	0.083558	0.055135	6672.400879
9456.973775	0.083452	0.055135	6747.841797
9456.974669	0.083558	0.055135	6822.542969
9458.061789	0.885817	0.038075	400.389130
9458.062721	1.315638	0.038075	1626.564209
9458.063619	1.321930	0.038075	2813.657227
9458.064572	1.294058	0.038075	4046.894043
9458.065508	1.265043	0.038075	5230.974121
9458.066427	0.885454	0.038075	6044.706543
9458.067341	0.116188	0.038075	6150.902344
9458.068275	0.083383	0.038075	6228.781738
9458.069191	0.083514	0.038075	6305.280762
9458.070078	0.083496	0.038075	6379.341797
9458.071016	0.083474	0.038075	6457.640625
9458.071934	0.083511	0.038075	6534.303711
9458.072832	0.083500	0.038075	6609.286621
9458.073753	0.083438	0.038075	6686.132324
9458.074685	0.083525	0.038075	6763.978027
9458.075613	0.083438	0.038075	6841.408203
9459.002839	0.871139	0.052339	385.914520
9459.003746	1.312401	0.052339	1576.262329
9459.004646	1.323054	0.052339	2767.011230
9459.005594	1.295255	0.052339	3994.913086
9459.006524	1.266471	0.052339	5172.730957
9459.007441	0.937526	0.052339	6032.441895
9459.008332	0.128053	0.052339	6146.537109
9459.009283	0.083405	0.052339	6225.854980
9459.010200	0.083496	0.052339	6302.420898
9459.011097	0.083478	0.052339	6377.300293
9459.012046	0.083503	0.052339	6456.544922
9459.012946	0.083500	0.052339	6531.694824
9459.013845	0.083448	0.052339	6606.714844
9459.014737	0.083467	0.052339	6681.166992
9459.015670	0.083474	0.052339	6759.048340
9459.016590	0.083474	0.052339	6835.844727
9460.103628	0.871505	0.041144	384.333771
9460.104600	1.316239	0.041144	1663.718018
9460.105521	1.321066	0.041144	2880.419434
9460.106417	1.294354	0.041144	4040.160645
9460.107336	1.265772	0.041144	5203.404785
9460.108288	0.878745	0.041144	6039.970215
9460.109209	0.112939	0.041144	6143.987305
9460.110095	0.083218	0.041144	6217.718262
9460.111039	0.083401	0.041144	6296.448730
9460.111984	0.083416	0.041144	6375.276367
9460.112873	0.083525	0.041144	6449.530273
9460.113794	0.083485	0.041144	6526.419922
9460.114737	0.083485	0.041144	6605.146484
9460.115652	0.083503	0.041144	6681.552246
9460.116550	0.083441	0.041144	6756.482422
9460.117485	0.083503	0.041144	6834.558105
9461.051851	0.870370	0.050151	382.962769
9461.052813	1.316290	0.050151	1649.234009
9461.053733	1.321392	0.050151	2864.914307
9461.054629	1.294589	0.050151	4024.865723
9461.055565	1.265867	0.050151	5209.716797
9461.056488	0.905017	0.050151	6045.047363
9461.057412	0.114965	0.050151	6151.274414
9461.058313	0.083324	0.050151	6226.349121
9461.059271	0.083518	0.050151	6306.359375
9461.060177	0.083511	0.050151	6382.020020
9461.061098	0.083481	0.050151	6458.906250
9461.061992	0.083478	0.050151	6533.535156
9461.062942	0.083463	0.050151	6612.825195
9461.063838	0.083445	0.050151	6687.591797
9461.064727	0.083397	0.050151	6761.731934
9461.065664	0.083419	0.050151	6839.895508
9462.143437	0.863199	0.043734	378.081360
9462.144330	1.311108	0.043734	1548.901123
9462.145314	1.321425	0.043734	2849.183105
9462.146226	1.294343	0.043734	4029.624023
9462.147129	1.266332	0.043734	5173.121582
9462.148086	0.899022	0.043734	6033.485840
9462.148989	0.118250	0.043734	6140.265137
9462.149888	0.083342	0.043734	6215.189941
9462.150775	0.083503	0.043734	6289.257324
9462.151705	0.083558	0.043734	6366.966797
9462.152617	0.083503	0.043734	6443.122070
9462.153511	0.083463	0.043734	6517.738281
9462.154431	0.083529	0.043734	6594.584961
9462.155346	0.083507	0.043734	6670.994141
9462.156250	0.083533	0.043734	6746.507812
9462.157141	0.083500	0.043734	6820.906250
9463.099877	0.874746	0.046812	396.259979
9463.100777	1.312727	0.046812	1577.714355
9463.101671	1.322966	0.046812	2760.446289
9463.102624	1.295032	0.046812	3994.611572
9463.103557	1.265962	0.046812	5175.753906
9463.104492	0.912048	0.046812	6028.519043
9463.105382	0.122523	0.046812	6137.564453
9463.106338	0.083379	0.046812	6217.274902
9463.107264	0.083438	0.046812	6294.538086
9463.108155	0.083445	0.046812	6368.887207
9463.109085	0.083467	0.046812	6446.511230
9463.110006	0.083434	0.046812	6523.354004
9463.110914	0.083408	0.046812	6599.088867
9463.111799	0.083547	0.046812	6673.028320
9463.112737	0.083445	0.046812	6751.299805
9463.113651	0.083408	0.046812	6827.534668
9464.183244	0.863716	0.043420	380.898651
9464.184145	1.311270	0.043420	1562.352539
9464.185107	1.321952	0.043420	2834.070312
9464.186026	1.294589	0.043420	4023.797363
9464.186921	1.266639	0.043420	5157.439453
9464.187867	0.925217	0.043420	6032.695312
9464.188760	0.124299	0.043420	6143.694824
9464.189660	0.083309	0.043420	6218.673340
9464.190552	0.083485	0.043420	6293.142090
9464.191492	0.083536	0.043420	6371.666504
9464.192402	0.083540	0.043420	6447.687988
9464.193302	0.083555	0.043420	6522.887207
9464.194220	0.083547	0.043420	6599.583496
9464.195127	0.083573	0.043420	6675.384277
9464.196036	0.083474	0.043420	6751.262207
9464.196929	0.083525	0.043420	6825.850586
9465.146877	0.884458	0.047771	425.424286
9465.147778	1.314924	0.047771	1610.171143
9465.148674	1.322358	0.047771	2795.004395
9465.149606	1.294900	0.047771	4001.851074
9465.150555	1.265383	0.047771	5202.699707
9465.151483	0.893661	0.047771	6032.017090
9465.152379	0.117664	0.047771	6137.443848
9465.153335	0.083309	0.047771	6217.087402
9465.154266	0.083514	0.047771	6294.839355
9465.155166	0.083467	0.047771	6369.959473
9465.156079	0.083500	0.047771	6446.194824
9465.157015	0.083481	0.047771	6524.333496
9465.157942	0.083441	0.047771	6601.683594
9465.158828	0.083496	0.047771	6675.661133
9465.159748	0.083500	0.047771	6752.480957
9465.160686	0.083459	0.047771	6830.766113
9466.227148	0.856271	0.044665	371.621490
9466.228093	1.312972	0.044665	1612.380371
9466.229019	1.321827	0.044665	2836.392578
9466.229924	1.295054	0.044665	4008.416016
9466.230824	1.266918	0.044665	5148.642090
9466.231785	0.915846	0.044665	6028.770020
9466.232684	0.122032	0.044665	6138.477051
9466.233604	0.083328	0.044665	6215.138672
9466.234503	0.083401	0.044665	6290.116211
9466.235448	0.083441	0.044665	6368.968262
9466.236357	0.083401	0.044665	6444.779785
9466.237244	0.083540	0.044665	6518.879883
9466.238139	0.083492	0.044665	6593.605469
9466.239086	0.083467	0.044665	6672.648437
9466.239975	0.083427	0.044665	6746.814453
9466.240863	0.083485	0.044665	6820.949219
9467.193805	0.866964	0.049547	378.863312
9467.194746	1.314642	0.049547	1615.941650
9467.195677	1.321567	0.049547	2846.320801
9467.196586	1.294464	0.049547	4022.988770
9467.197520	1.265863	0.049547	5205.304687
9467.198440	0.915491	0.049547	6047.556152
9467.199348	0.119905	0.049547	6156.429687
9467.200235	0.083291	0.049547	6230.308594
9467.201181	0.083474	0.049547	6309.274902
9467.202080	0.083485	0.049547	6384.328125
9467.202973	0.083489	0.049547	6458.883789
9467.203890	0.083503	0.049547	6535.456543
9467.204806	0.083529	0.049547	6611.969238
9467.205716	0.083452	0.049547	6687.910645
9467.206619	0.083478	0.049547	6763.291016
9467.207544	0.083507	0.049547	6840.535156
9468.267982	0.860903	0.043408	379.658356
9468.268875	1.310310	0.043408	1549.765137
9468.269848	1.321805	0.043408	2835.881836
9468.270790	1.293922	0.043408	4054.756348
9468.271689	1.265731	0.043408	5192.648437
9468.272622	0.902054	0.043408	6034.265137
9468.273569	0.114686	0.043408	6142.873047
9468.274485	0.083412	0.043408	6219.278320
9468.275380	0.083529	0.043408	6294.036621
9468.276317	0.083492	0.043408	6372.269043
9468.277247	0.083503	0.043408	6449.927246
9468.278171	0.083503	0.043408	6527.084473
9468.279059	0.083551	0.043408	6601.277832
9468.280002	0.083511	0.043408	6680.028320
9468.280934	0.083463	0.043408	6757.815918
9468.281825	0.083448	0.043408	6832.168457
9469.238746	0.877299	0.050059	395.661652
9469.239650	1.312859	0.050059	1582.485962
9469.240545	1.322681	0.050059	2766.285156
9469.241508	1.294548	0.050059	4012.935059
9469.242419	1.266449	0.050059	5166.669922
9469.243324	0.953276	0.050059	6029.385254
9469.244261	0.129895	0.050059	6151.096680
9469.245168	0.083394	0.050059	6226.734863
9469.246071	0.083467	0.050059	6302.105469
9469.246958	0.083496	0.050059	6376.166504
9469.247901	0.083577	0.050059	6454.979492
9469.248803	0.083456	0.050059	6530.256836
9469.249704	0.083503	0.050059	6605.493652
9469.250594	0.083544	0.050059	6679.847656
9469.251539	0.083518	0.050059	6758.772461
9469.252446	0.083489	0.050059	6834.496582
9470.313976	0.899832	0.043211	431.019318
9470.314917	1.316909	0.043211	1670.230835
9470.315809	1.321194	0.043211	2848.735840
9470.316764	1.293160	0.043211	4083.704102
9470.317699	1.263754	0.043211	5265.313477
9470.318610	0.860467	0.043211	6049.199219
9470.319530	0.111962	0.043211	6152.204102
9470.320471	0.083309	0.043211	6230.598145
9470.321388	0.083518	0.043211	6307.184082
9470.322289	0.083474	0.043211	6382.394043
9470.323243	0.083478	0.043211	6462.031738
9470.324182	0.083474	0.043211	6540.414062
9470.325080	0.083540	0.043211	6615.433105
9470.325993	0.083478	0.043211	6691.648437
9470.326922	0.083423	0.043211	6769.148437
9470.327852	0.083529	0.043211	6846.830566
9471.282665	0.873713	0.049205	410.645294
9471.283572	1.314452	0.049205	1602.853149
9471.284518	1.321674	0.049205	2853.156250
9471.285437	1.293896	0.049205	4042.247070
9471.286363	1.265021	0.049205	5213.656250
9471.287268	0.909360	0.049205	6036.627441
9471.288185	0.121132	0.049205	6147.705078
9471.289135	0.083357	0.049205	6226.894043
9471.290056	0.083478	0.049205	6303.776855
9471.290946	0.083408	0.049205	6378.010254
9471.291889	0.083467	0.049205	6456.719238
9471.292786	0.083416	0.049205	6531.542969
9471.293692	0.083438	0.049205	6607.137207
9471.294587	0.083452	0.049205	6681.826660
9471.295536	0.083485	0.049205	6761.054199
9471.296457	0.083405	0.049205	6837.869629
9472.359883	0.872780	0.043738	385.768555
9472.360854	1.316386	0.043738	1663.978882
9472.361772	1.321036	0.043738	2876.690186
9472.362668	1.294321	0.043738	4036.402100
9472.363604	1.265541	0.043738	5220.948242
9472.364534	0.888029	0.043738	6046.814941
9472.365431	0.117085	0.043738	6151.840332
9472.366322	0.083357	0.043738	6226.111328
9472.367282	0.083540	0.043738	6306.309570
9472.368191	0.083503	0.043738	6382.214355
9472.369095	0.083536	0.043738	6457.731445
9472.369998	0.083463	0.043738	6533.098633
9472.370921	0.083555	0.043738	6610.219727
9472.371829	0.083459	0.043738	6686.000977
9472.372720	0.083518	0.043738	6760.415527
9472.373657	0.083511	0.043738	6838.665039
9473.323483	0.864441	0.050280	384.676208
9473.324383	1.312214	0.050280	1565.669189
9473.325313	1.322666	0.050280	2795.748535
9473.326248	1.294431	0.050280	4006.041504
9473.327185	1.265552	0.050280	5191.863281
9473.328094	0.922317	0.050280	6030.249023
9473.329030	0.117832	0.050280	6140.540039
9473.329969	0.083383	0.050280	6218.836426
9473.330893	0.083427	0.050280	6295.922363
9473.331780	0.083467	0.050280	6369.957520
9473.332715	0.083470	0.050280	6448.002441
9473.333660	0.083478	0.050280	6526.889160
9473.334561	0.083478	0.050280	6602.102539
9473.335478	0.083547	0.050280	6678.715332
9473.336427	0.083500	0.050280	6757.956543
9473.337340	0.083467	0.050280	6834.161621
9474.404843	0.890819	0.044733	414.230896
9474.405745	1.313639	0.044733	1599.133301
9474.406641	1.322388	0.044733	2783.992676
9474.407597	1.294589	0.044733	4021.619385
9474.408511	1.266185	0.044733	5178.912598
9474.409409	0.949387	0.044733	6031.462402
9474.410341	0.129214	0.044733	6151.889648
9474.411266	0.083481	0.044733	6229.109863
9474.412175	0.083522	0.044733	6305.031250
9474.413069	0.083610	0.044733	6379.778320
9474.414015	0.083621	0.044733	6458.883301
9474.414926	0.083551	0.044733	6534.998047
9474.415821	0.083547	0.044733	6609.772949
9474.416705	0.083459	0.044733	6683.551270
9474.417634	0.083577	0.044733	6761.193848
9474.418538	0.083489	0.044733	6836.667480
9475.367391	0.883751	0.048468	403.874298
9475.368301	1.313654	0.048468	1599.299072
9475.369234	1.321868	0.048468	2832.601562
9475.370185	1.293552	0.048468	4062.769775
9475.371112	1.264673	0.048468	5235.121582
9475.372015	0.890094	0.048468	6038.876465
9475.372956	0.113438	0.048468	6145.621094
9475.373890	0.083306	0.048468	6223.428711
9475.374785	0.083507	0.048468	6298.167480
9475.375696	0.083441	0.048468	6374.182617
9475.376627	0.083492	0.048468	6451.914062
9475.377541	0.083511	0.048468	6528.242676
9475.378438	0.083434	0.048468	6603.083008
9475.379374	0.083419	0.048468	6681.163574
9475.380301	0.083412	0.048468	6758.486328
9475.381214	0.083474	0.048468	6834.698242
9476.454877	0.881279	0.041853	398.338226
9476.455780	1.312390	0.041853	1583.426514
9476.456676	1.322889	0.041853	2768.735352
9476.457600	1.295848	0.041853	3966.099365
9476.458534	1.266603	0.041853	5149.106445
9476.459468	0.931893	0.041853	6019.494629
9476.460367	0.126321	0.041853	6133.057129
9476.461308	0.083390	0.041853	6211.526855
9476.462218	0.083507	0.041853	6287.518066
9476.463134	0.083529	0.041853	6364.030762
9476.464024	0.083489	0.041853	6438.335937
9476.464974	0.083448	0.041853	6517.611816
9476.465901	0.083438	0.041853	6594.958496
9476.466791	0.083419	0.041853	6669.201660
9476.467714	0.083427	0.041853	6746.204102
9476.468641	0.083496	0.041853	6823.604980
9477.406151	0.867191	0.049531	376.360992
9477.407126	1.316547	0.049531	1659.994019
9477.408041	1.321289	0.049531	2868.973633
9477.408945	1.294259	0.049531	4038.983887
9477.409890	1.265101	0.049531	5234.504883
9477.410808	0.891284	0.049531	6052.703613
9477.411706	0.117708	0.049531	6158.404785
9477.412596	0.083357	0.049531	6232.592285
9477.413541	0.083584	0.049531	6311.579102
9477.414451	0.083456	0.049531	6387.523926
9477.415345	0.083456	0.049531	6462.133301
9477.416277	0.083452	0.049531	6539.910645
9477.417193	0.083533	0.049531	6616.426758
9477.418100	0.083522	0.049531	6692.181152
9477.419005	0.083540	0.049531	6767.784668
9477.419940	0.083591	0.049531	6845.942383
9478.501878	0.898059	0.039980	427.476105
9478.502807	1.316228	0.039980	1650.251953
9478.503729	1.321084	0.039980	2868.291260
9478.504622	1.294237	0.039980	4024.044922
9478.505577	1.264889	0.039980	5232.013672
9478.506524	0.861504	0.039980	6047.857910
9478.507411	0.113562	0.039980	6148.587402
9478.508332	0.083320	0.039980	6225.325195
9478.509265	0.083518	0.039980	6303.247559
9478.510180	0.083445	0.039980	6379.599609
9478.511079	0.083463	0.039980	6454.632812
9478.512020	0.083492	0.039980	6533.199219
9478.512959	0.083456	0.039980	6611.564453
9478.513855	0.083408	0.039980	6686.298340
9478.514768	0.083452	0.039980	6762.490234
9478.515704	0.083438	0.039980	6840.587891
9479.448020	0.861405	0.050023	382.463837
9479.448923	1.312280	0.050023	1567.453003
9479.449857	1.322274	0.050023	2802.457031
9479.450770	1.295295	0.050023	3985.061523
9479.451678	1.266819	0.050023	5135.333008
9479.452578	0.977710	0.050023	6015.271973
9479.453548	0.125002	0.050023	6136.524414
9479.454446	0.083317	0.050023	6211.342773
9479.455346	0.083434	0.050023	6286.433105
9479.456235	0.083463	0.050023	6360.631836
9479.457187	0.083511	0.050023	6440.134277
9479.458091	0.083481	0.050023	6515.601562
9479.458982	0.083427	0.050023	6589.934570
9479.459917	0.083507	0.050023	6668.013672
9479.460816	0.083522	0.050023	6743.099609
9479.461712	0.083434	0.050023	6817.856445
9480.547789	0.857933	0.036661	374.058929
9480.548725	1.311881	0.036661	1601.979614
9480.549681	1.321300	0.036661	2865.142578
9480.550607	1.293794	0.036661	4063.195801
9480.551504	1.265555	0.036661	5198.398926
9480.552456	0.872640	0.036661	6029.152344
9480.553389	0.110870	0.036661	6132.594238
9480.554284	0.083401	0.036661	6207.237793
9480.555201	0.083492	0.036661	6283.800293
9480.556137	0.083503	0.036661	6361.959473
9480.557053	0.083467	0.036661	6438.415039
9480.557947	0.083478	0.036661	6513.043945
9480.558878	0.083467	0.036661	6590.751465
9480.559809	0.083481	0.036661	6668.472656
9480.560722	0.083463	0.036661	6744.674316
9480.561611	0.083430	0.036661	6818.843750
9481.492939	0.867294	0.050905	384.211121
9481.493920	1.317821	0.050905	1676.993652
9481.494833	1.320414	0.050905	2882.531494
9481.495764	1.293076	0.050905	4086.385254
9481.496659	1.264676	0.050905	5218.270508
9481.497626	0.845035	0.050905	6035.419922
9481.498520	0.110834	0.050905	6134.505371
9481.499404	0.083350	0.050905	6208.186523
9481.500343	0.083419	0.050905	6286.517090
9481.501245	0.083430	0.050905	6361.770996
9481.502162	0.083489	0.050905	6438.330078
9481.503058	0.083452	0.050905	6513.103027
9481.504004	0.083448	0.050905	6592.045410
9481.504905	0.083405	0.050905	6667.192871
9481.505793	0.083448	0.050905	6741.294922
9481.506706	0.083547	0.050905	6817.573730
9482.588618	0.859548	0.039670	377.341705
9482.589589	1.315931	0.039670	1655.111084
9482.590499	1.321161	0.039670	2857.367676
9482.591401	1.294493	0.039670	4025.000488
9482.592319	1.265918	0.039670	5187.113281
9482.593259	0.905808	0.039670	6038.572754
9482.594160	0.119854	0.039670	6146.560547
9482.595055	0.083394	0.039670	6221.197754
9482.595973	0.083507	0.039670	6297.857422
9482.596874	0.083507	0.039670	6373.097168
9482.597774	0.083448	0.039670	6448.200684
9482.598663	0.083474	0.039670	6522.409180
9482.599605	0.083580	0.039670	6601.141602
9482.600498	0.083434	0.039670	6675.647949
9482.601399	0.083459	0.039670	6750.844727
9482.602299	0.083470	0.039670	6825.968262
9483.544015	0.876771	0.051078	389.286407
9483.544988	1.317096	0.051078	1670.820801
9483.545913	1.320615	0.051078	2892.389893
9483.546807	1.293904	0.051078	4049.139893
9483.547739	1.265024	0.051078	5228.142578
9483.548688	0.860533	0.051078	6044.789062
9483.549608	0.110592	0.051078	6146.533691
9483.550495	0.083350	0.051078	6220.464844
9483.551436	0.083511	0.051078	6299.048340
9483.552363	0.083569	0.051078	6376.517090
9483.553260	0.083394	0.051078	6451.321289
9483.554176	0.083386	0.051078	6527.703125
9483.555110	0.083540	0.051078	6605.729492
9483.556019	0.083514	0.051078	6681.644043
9483.556917	0.083492	0.051078	6756.620117
9483.557868	0.083485	0.051078	6836.014648
9484.626426	0.876394	0.040508	428.556671
9484.627347	1.315576	0.040508	1640.202271
9484.628247	1.321285	0.040508	2829.359131
9484.629144	1.294966	0.040508	3990.943359
9484.630083	1.265607	0.040508	5179.348145
9484.631010	0.904742	0.040508	6018.044434
9484.631931	0.116744	0.040508	6125.565918
9484.632833	0.083295	0.040508	6200.697754
9484.633793	0.083427	0.040508	6280.787109
9484.634703	0.083492	0.040508	6356.765137
9484.635597	0.083452	0.040508	6431.371582
9484.636540	0.083536	0.040508	6510.146484
9484.637452	0.083412	0.040508	6586.218262
9484.638369	0.083397	0.040508	6662.693359
9484.639256	0.083438	0.040508	6736.702637
9484.640187	0.083438	0.040508	6814.382812
9485.594052	0.853912	0.050873	369.744049
9485.594991	1.310878	0.050873	1600.658203
9485.595938	1.321099	0.050873	2851.738525
9485.596874	1.293347	0.050873	4062.311523
9485.597779	1.265046	0.050873	5207.178711
9485.598749	0.852253	0.050873	6033.864746
9485.599644	0.111694	0.050873	6133.831055
9485.600553	0.083302	0.050873	6209.552734
9485.601445	0.083438	0.050873	6283.979004
9485.602371	0.083540	0.050873	6361.336914
9485.603277	0.083470	0.050873	6436.960937
9485.604186	0.083474	0.050873	6512.838867
9485.605077	0.083438	0.050873	6587.181641
9485.606026	0.083555	0.050873	6666.475098
9485.606931	0.083470	0.050873	6742.015625
9485.607824	0.083445	0.050873	6816.531738
9486.666183	0.856377	0.044069	374.236725
9486.667153	1.315719	0.044069	1650.484131
9486.668054	1.321062	0.044069	2840.760986
9486.668976	1.294153	0.044069	4033.969971
9486.669885	1.265610	0.044069	5184.409668
9486.670833	0.884890	0.044069	6023.285645
9486.671764	0.112639	0.044069	6128.152832
9486.672657	0.083379	0.044069	6202.610352
9486.673589	0.083434	0.044069	6280.370605
9486.674503	0.083445	0.044069	6356.639160
9486.675422	0.083555	0.044069	6433.425781
9486.676314	0.083514	0.044069	6507.920410
9486.677268	0.083459	0.044069	6587.540527
9486.678182	0.083430	0.044069	6663.795898
9486.679078	0.083533	0.044069	6738.641113
9486.679995	0.083555	0.044069	6815.260742
9487.637956	0.857109	0.048456	371.985474
9487.638916	1.314331	0.048456	1633.743286
9487.639823	1.321516	0.048456	2832.358398
9487.640733	1.294563	0.048456	4010.410645
9487.641626	1.266738	0.048456	5141.607910
9487.642580	0.926990	0.048456	6025.956055
9487.643481	0.124991	0.048456	6138.573242
9487.644368	0.083364	0.048456	6212.517578
9487.645306	0.083529	0.048456	6290.867676
9487.646212	0.083610	0.048456	6366.618164
9487.647105	0.083467	0.048456	6441.153809
9487.647994	0.083525	0.048456	6515.407715
9487.648939	0.083514	0.048456	6594.328613
9487.649842	0.083551	0.048456	6669.775391
9487.650747	0.083514	0.048456	6745.355957
9487.651632	0.083470	0.048456	6819.227539
9488.712151	0.867261	0.046796	383.329254
9488.713055	1.311797	0.046796	1569.193604
9488.713949	1.322776	0.046796	2751.755371
9488.714904	1.294955	0.046796	3988.437012
9488.715844	1.266053	0.046796	5178.527344
9488.716753	0.937302	0.046796	6030.535156
9488.717676	0.125706	0.046796	6146.561523
9488.718612	0.083320	0.046796	6224.549316
9488.719532	0.083507	0.046796	6301.375977
9488.720421	0.083485	0.046796	6375.594238
9488.721362	0.083419	0.046796	6454.091797
9488.722303	0.083489	0.046796	6532.654785
9488.723194	0.083448	0.046796	6607.007324
9488.724109	0.083514	0.046796	6683.422852
9488.725032	0.083500	0.046796	6760.493164
9488.725972	0.083489	0.046796	6838.972656
9489.678793	0.860182	0.048955	375.899475
9489.679770	1.317125	0.048955	1662.730713
9489.680685	1.321095	0.048955	2871.532715
9489.681584	1.294248	0.048955	4035.061523
9489.682492	1.266006	0.048955	5184.594727
9489.683451	0.892357	0.048955	6040.365234
9489.684346	0.117836	0.048955	6145.828125
9489.685235	0.083276	0.048955	6219.860840
9489.686160	0.083551	0.048955	6297.145508
9489.687068	0.083518	0.048955	6372.979980
9489.687989	0.083448	0.048955	6449.835937
9489.688881	0.083467	0.048955	6524.288086
9489.689829	0.083525	0.048955	6603.470215
9489.690731	0.083500	0.048955	6678.787109
9489.691623	0.083500	0.048955	6753.269043
9489.692536	0.083448	0.048955	6829.457520
9490.762201	0.869875	0.042747	384.484955
9490.763114	1.312057	0.042747	1582.392944
9490.764021	1.322585	0.042747	2781.978027
9490.764962	1.295394	0.042747	4000.944092
9490.765880	1.266500	0.042747	5163.591309
9490.766792	0.946824	0.042747	6027.094727
9490.767683	0.130792	0.042747	6143.630371
9490.768627	0.083459	0.042747	6222.416016
9490.769528	0.083566	0.042747	6297.708496
9490.770428	0.083478	0.042747	6372.838379
9490.771313	0.083518	0.042747	6446.751953
9490.772250	0.083503	0.042747	6524.994629
9490.773162	0.083511	0.042747	6601.156250
9490.774065	0.083544	0.042747	6676.596191
9490.774991	0.083621	0.042747	6754.028809
9490.775904	0.083606	0.042747	6830.360840
9491.716555	0.861409	0.052685	378.158417
9491.717494	1.313807	0.052685	1611.823608
9491.718444	1.320820	0.052685	2866.603027
9491.719367	1.293713	0.052685	4060.700684
9491.720262	1.265171	0.052685	5193.028809
9491.721212	0.871893	0.052685	6021.327637
9491.722159	0.109882	0.052685	6125.385742
9491.723058	0.083353	0.052685	6200.320312
9491.723981	0.083441	0.052685	6277.336426
9491.724919	0.083434	0.052685	6355.597168
9491.725837	0.083489	0.052685	6432.239746
9491.726722	0.083434	0.052685	6506.078613
9491.727665	0.083423	0.052685	6584.746582
9491.728605	0.083394	0.052685	6663.136719
9491.729503	0.083500	0.052685	6738.119629
9491.730428	0.083448	0.052685	6815.309570
9492.812256	0.869919	0.041180	400.162933
9492.813211	1.315580	0.041180	1656.541748
9492.814114	1.321201	0.041180	2849.586426
9492.815013	1.294424	0.041180	4013.273437
9492.815943	1.265445	0.041180	5190.137695
9492.816870	0.899729	0.041180	6024.186523
9492.817794	0.115356	0.041180	6130.775879
9492.818682	0.083452	0.041180	6204.881348
9492.819640	0.083507	0.041180	6284.881348
9492.820542	0.083522	0.041180	6360.217773
9492.821434	0.083599	0.041180	6434.787598
9492.822385	0.083507	0.041180	6514.202637
9492.823289	0.083489	0.041180	6589.676270
9492.824207	0.083492	0.041180	6666.322266
9492.825102	0.083577	0.041180	6741.123535
9492.826043	0.083489	0.041180	6819.686523
9493.758443	0.883217	0.050462	408.929260
9493.759354	1.313785	0.050462	1605.787842
9493.760256	1.322018	0.050462	2798.248047
9493.761154	1.295032	0.050462	3961.186523
9493.762111	1.265867	0.050462	5172.621094
9493.763044	0.921621	0.050462	6032.493652
9493.763935	0.124310	0.050462	6143.253906
9493.764858	0.083419	0.050462	6220.250000
9493.765764	0.083522	0.050462	6295.920898
9493.766668	0.083518	0.050462	6371.421387
9493.767556	0.083551	0.050462	6445.614746
9493.768490	0.083577	0.050462	6523.675293
9493.769387	0.083525	0.050462	6598.597656
9493.770284	0.083562	0.050462	6673.552734
9493.771193	0.083522	0.050462	6749.474121
9493.772121	0.083500	0.050462	6826.961914
9494.856139	0.875610	0.040955	387.019775
9494.857108	1.316393	0.040955	1662.604492
9494.858029	1.320842	0.040955	2879.100098
9494.858926	1.294145	0.040955	4039.948730
9494.859848	1.265427	0.040955	5206.672852
9494.860808	0.866715	0.040955	6038.719238
9494.861734	0.109702	0.040955	6140.303223
9494.862623	0.083364	0.040955	6214.414062
9494.863567	0.083481	0.040955	6293.220703
9494.864499	0.083430	0.040955	6370.977539
9494.865391	0.083562	0.040955	6445.514648
9494.866302	0.083492	0.040955	6521.576172
9494.867233	0.083573	0.040955	6599.382812
9494.868154	0.083569	0.040955	6676.350098
9494.869044	0.083514	0.040955	6750.677734
9494.869968	0.083492	0.040955	6827.824707
9495.803338	0.863987	0.049632	379.290222
9495.804231	1.311068	0.049632	1550.073975
9495.805222	1.320992	0.049632	2859.177246
9495.806137	1.293805	0.049632	4043.008789
9495.807042	1.265596	0.049632	5188.373047
9495.807994	0.892793	0.049632	6038.312012
9495.808896	0.115935	0.049632	6142.885254
9495.809798	0.083324	0.049632	6218.043457
9495.810688	0.083518	0.049632	6292.374512
9495.811635	0.083485	0.049632	6371.435059
9495.812547	0.083459	0.049632	6447.550293
9495.813438	0.083503	0.049632	6521.951660
9495.814348	0.083503	0.049632	6597.939941
9495.815284	0.083558	0.049632	6676.150391
9495.816190	0.083478	0.049632	6751.781250
9495.817087	0.083529	0.049632	6826.707031
9496.901106	0.872073	0.037378	409.874207
9496.902013	1.314232	0.037378	1601.882812
9496.902911	1.322062	0.037378	2789.094238
9496.903852	1.294493	0.037378	4007.212402
9496.904779	1.265449	0.037378	5180.283691
9496.905717	0.903541	0.037378	6027.805176
9496.906608	0.120278	0.037378	6134.973145
9496.907564	0.083306	0.037378	6214.613281
9496.908499	0.083430	0.037378	6292.620605
9496.909394	0.083448	0.037378	6367.307129
9496.910311	0.083489	0.037378	6443.866211
9496.911238	0.083467	0.037378	6521.239746
9496.912153	0.083492	0.037378	6597.635254
9496.913049	0.083452	0.037378	6672.408203
9496.913991	0.083416	0.037378	6750.985840
9496.914927	0.083507	0.037378	6829.148437
9497.850325	0.861709	0.050655	386.045593
9497.851234	1.312734	0.050655	1579.321045
9497.852148	1.321860	0.050655	2787.501465
9497.853109	1.293841	0.050655	4030.883301
9497.854031	1.265255	0.050655	5197.448242
9497.854938	0.921680	0.050655	6033.411621
9497.855872	0.120758	0.050655	6146.199707
9497.856809	0.083364	0.050655	6224.312012
9497.857725	0.083522	0.050655	6300.817871
9497.858613	0.083474	0.050655	6374.942871
9497.859559	0.083452	0.050655	6453.888672
9497.860479	0.083456	0.050655	6530.667969
9497.861372	0.083540	0.050655	6605.269043
9497.862300	0.083500	0.050655	6682.756836
9497.863230	0.083522	0.050655	6760.432129
9497.864149	0.083529	0.050655	6837.195312
9498.939851	0.854839	0.041817	369.290375
9498.940798	1.311020	0.041817	1610.826782
9498.941721	1.321989	0.041817	2831.022217
9498.942636	1.294431	0.041817	4015.426758
9498.943535	1.266354	0.041817	5153.878906
9498.944500	0.907266	0.041817	6029.390137
9498.945402	0.119762	0.041817	6137.415527
9498.946299	0.083317	0.041817	6212.150391
9498.947190	0.083441	0.041817	6286.496582
9498.948139	0.083540	0.041817	6365.775879
9498.949046	0.083507	0.041817	6441.516602
9498.949945	0.083470	0.041817	6516.556641
9498.950872	0.083555	0.041817	6594.011719
9498.951773	0.083643	0.041817	6669.373535
9498.952674	0.083496	0.041817	6744.603516
9498.953566	0.083580	0.041817	6819.157227
9499.896320	0.880682	0.052484	424.488892
9499.897220	1.314650	0.052484	1607.673584
9499.898149	1.321040	0.052484	2834.919922
9499.899054	1.294354	0.052484	4006.310547
9499.899991	1.265171	0.052484	5191.775879
9499.900943	0.874607	0.052484	6024.401855
9499.901842	0.113489	0.052484	6126.428223
9499.902751	0.083379	0.052484	6202.219727
9499.903677	0.083456	0.052484	6279.500000
9499.904615	0.083500	0.052484	6357.822754
9499.905507	0.083511	0.052484	6432.314453
9499.906429	0.083529	0.052484	6509.328125
9499.907368	0.083430	0.052484	6587.668945
9499.908279	0.083518	0.052484	6663.753906
9499.909179	0.083485	0.052484	6738.890625
9499.910118	0.083551	0.052484	6817.345215
9500.980678	0.854601	0.041100	370.896759
9500.981626	1.311885	0.041100	1614.563477
9500.982545	1.321666	0.041100	2829.174805
9500.983476	1.293911	0.041100	4033.806152
9500.984369	1.266204	0.041100	5164.525879
9500.985327	0.900590	0.041100	6027.290527
9500.986224	0.120524	0.041100	6135.400391
9500.987112	0.083456	0.041100	6209.509277
9500.988024	0.083551	0.041100	6285.708008
9500.988953	0.083533	0.041100	6363.310059
9500.989857	0.083452	0.041100	6438.750977
9500.990752	0.083522	0.041100	6513.502930
9500.991693	0.083566	0.041100	6592.138184
9500.992608	0.083514	0.041100	6668.553711
9500.993525	0.083481	0.041100	6745.105957
9500.994416	0.083474	0.041100	6819.481445
9501.944290	0.873208	0.053793	391.197174
9501.945209	1.313071	0.053793	1597.909668
9501.946114	1.322080	0.053793	2794.392090
9501.947020	1.295120	0.053793	3967.770508
9501.947967	1.265980	0.053793	5166.653809
9501.948889	0.934940	0.053793	6028.668457
9501.949785	0.126057	0.053793	6141.615723
9501.950714	0.083350	0.053793	6219.047363
9501.951613	0.083522	0.053793	6294.133301
9501.952515	0.083533	0.053793	6369.479980
9501.953403	0.083496	0.053793	6443.624512
9501.954349	0.083643	0.053793	6522.750488
9501.955250	0.083529	0.053793	6598.010254
9501.956146	0.083558	0.053793	6672.878418
9501.957062	0.083478	0.053793	6749.344238
9501.957991	0.083613	0.053793	6827.020996
9503.023580	0.879174	0.040689	398.265625
9503.024488	1.312386	0.040689	1589.912476
9503.025444	1.321399	0.040689	2853.169922
9503.026355	1.293999	0.040689	4032.002930
9503.027280	1.265563	0.040689	5202.648437
9503.028181	0.911078	0.040689	6023.529785
9503.029134	0.116074	0.040689	6134.148437
9503.030051	0.083375	0.040689	6210.603516
9503.030941	0.083569	0.040689	6284.980469
9503.031875	0.083540	0.040689	6363.006836
9503.032784	0.083492	0.040689	6438.901367
9503.033699	0.083478	0.040689	6515.283691
9503.034600	0.083470	0.040689	6590.490723
9503.035553	0.083492	0.040689	6670.059082
9503.036472	0.083551	0.040689	6746.842285
9503.037389	0.083562	0.040689	6823.468750
9503.989201	0.865869	0.052266	387.043518
9503.990095	1.311800	0.052266	1559.793213
9503.991077	1.321168	0.052266	2857.180420
9503.992000	1.293340	0.052266	4050.933105
9503.992908	1.265153	0.052266	5199.691406
9503.993861	0.874922	0.052266	6033.492187
9503.994765	0.113405	0.052266	6136.009766
9503.995668	0.083412	0.052266	6211.330566
9503.996561	0.083492	0.052266	6285.889160
9503.997517	0.083591	0.052266	6365.802246
9503.998423	0.083514	0.052266	6441.466309
9503.999315	0.083562	0.052266	6516.003418
9504.000229	0.083507	0.052266	6592.329102
9504.001144	0.083573	0.052266	6668.798340
9504.002053	0.083456	0.052266	6744.659668
9504.002956	0.083518	0.052266	6820.076660
9505.068482	0.853213	0.039589	369.441193
9505.069422	1.310973	0.039589	1601.755615
9505.070383	1.321106	0.039589	2871.338379
9505.071300	1.293633	0.039589	4057.599609
9505.072195	1.265559	0.039589	5190.274902
9505.073145	0.883685	0.039589	6029.775879
9505.074080	0.111680	0.039589	6134.196289
9505.074991	0.083386	0.039589	6210.161133
9505.075886	0.083459	0.039589	6284.857422
9505.076838	0.083595	0.039589	6364.439941
9505.077783	0.083511	0.039589	6443.357422
9505.078679	0.083496	0.039589	6518.169922
9505.079596	0.083485	0.039589	6594.725586
9505.080535	0.083522	0.039589	6673.152344
9505.081454	0.083533	0.039589	6749.918945
9505.082341	0.083518	0.039589	6823.999512
9506.034122	0.861086	0.048762	376.294769
9506.035110	1.315807	0.048762	1676.312012
9506.036010	1.320659	0.048762	2864.905273
9506.036937	1.293061	0.048762	4063.573242
9506.037842	1.264449	0.048762	5207.899902
9506.038806	0.850030	0.048762	6027.329102
9506.039727	0.107820	0.048762	6126.631348
9506.040626	0.083412	0.048762	6201.618652
9506.041558	0.083503	0.048762	6279.443848
9506.042478	0.083496	0.048762	6356.260254
9506.043391	0.083522	0.048762	6432.515625
9506.044282	0.083496	0.048762	6506.910645
9506.045218	0.083492	0.048762	6585.059570
9506.046136	0.083525	0.048762	6661.735840
9506.047052	0.083514	0.048762	6738.234863
9506.047957	0.083412	0.048762	6813.722656
9507.113415	0.861515	0.039807	374.758972
9507.114395	1.316591	0.039807	1665.017822
9507.115306	1.320743	0.039807	2868.215088
9507.116204	1.294270	0.039807	4030.469727
9507.117139	1.265607	0.039807	5213.812012
9507.118061	0.901868	0.039807	6045.333984
9507.118957	0.120176	0.039807	6153.011719
9507.119845	0.083287	0.039807	6226.970703
9507.120788	0.083463	0.039807	6305.676270
9507.121701	0.083474	0.039807	6381.888184
9507.122605	0.083511	0.039807	6457.381836
9507.123493	0.083496	0.039807	6531.526367
9507.124441	0.083588	0.039807	6610.767578
9507.125349	0.083423	0.039807	6686.515625
9507.126241	0.083408	0.039807	6760.915527
9507.127192	0.083492	0.039807	6840.316895
9508.074957	0.859512	0.051005	373.028107
9508.075890	1.310944	0.051005	1596.138428
9508.076828	1.321219	0.051005	2835.442383
9508.077754	1.293787	0.051005	4033.488770
9508.078653	1.265801	0.051005	5171.443359
9508.079597	0.904677	0.051005	6025.458008
9508.080523	0.114503	0.051005	6131.487793
9508.081440	0.083434	0.051005	6207.996582
9508.082329	0.083555	0.051005	6282.276855
9508.083269	0.083522	0.051005	6360.787109
9508.084204	0.083558	0.051005	6438.914062
9508.085100	0.083529	0.051005	6513.755859
9508.086018	0.083456	0.051005	6590.368164
9508.086963	0.083514	0.051005	6669.289062
9508.087876	0.083525	0.051005	6745.547852
9508.088770	0.083511	0.051005	6820.206543
9509.158358	0.859200	0.039972	381.484985
9509.159258	1.311050	0.039972	1561.429810
9509.160153	1.322944	0.039972	2745.465088
9509.161095	1.295962	0.039972	3966.261230
9509.162026	1.266643	0.039972	5145.505859
9509.162957	0.938339	0.039972	6019.099121
9509.163847	0.128848	0.039972	6133.773437
9509.164794	0.083390	0.039972	6212.743652
9509.165711	0.083514	0.039972	6289.326172
9509.166626	0.083529	0.039972	6365.755371
9509.167520	0.083547	0.039972	6440.446777
9509.168470	0.083514	0.039972	6519.785645
9509.169398	0.083481	0.039972	6597.256348
9509.170289	0.083511	0.039972	6671.664551
9509.171230	0.083441	0.039972	6750.182617
9509.172135	0.083459	0.039972	6825.713379
9510.117853	0.881766	0.052009	400.321930
9510.118762	1.313199	0.052009	1594.020142
9510.119703	1.321747	0.052009	2837.783936
9510.120619	1.294314	0.052009	4023.375488
9510.121531	1.265881	0.052009	5177.859375
9510.122435	0.947054	0.052009	6033.996582
9510.123388	0.118843	0.052009	6147.253906
9510.124286	0.083419	0.052009	6222.164551
9510.125186	0.083470	0.052009	6297.288086
9510.126074	0.083470	0.052009	6371.409668
9510.127004	0.083602	0.052009	6449.159668
9510.127918	0.083467	0.052009	6525.448242
9510.128817	0.083533	0.052009	6600.543945
9510.129751	0.083551	0.052009	6678.580566
9510.130661	0.083613	0.052009	6754.668457
9510.131566	0.083514	0.052009	6830.249023
9511.205363	0.877207	0.039029	414.918945
9511.206297	1.315990	0.039029	1644.053711
9511.207232	1.320443	0.039029	2878.667969
9511.208131	1.293321	0.039029	4041.364014
9511.209085	1.264241	0.039029	5247.449707
9511.210047	0.823217	0.039029	6039.383789
9511.210950	0.106370	0.039029	6135.435547
9511.211862	0.083386	0.039029	6211.483887
9511.212792	0.083474	0.039029	6289.114746
9511.213723	0.083448	0.039029	6366.805176
9511.214621	0.083489	0.039029	6441.778320
9511.215537	0.083405	0.039029	6518.176758
9511.216473	0.083438	0.039029	6596.274414
9511.217405	0.083507	0.039029	6674.103027
9511.218300	0.083503	0.039029	6748.838379
9511.219223	0.083507	0.039029	6825.915527
9512.158682	0.877390	0.052597	397.457733
9512.159607	1.314258	0.052597	1613.146240
9512.160513	1.321589	0.052597	2810.506348
9512.161465	1.293710	0.052597	4042.118164
9512.162385	1.265127	0.052597	5206.035156
9512.163288	0.923555	0.052597	6040.004883
9512.164219	0.123475	0.052597	6154.960449
9512.165139	0.083342	0.052597	6231.635254
9512.166052	0.083533	0.052597	6307.900391
9512.166944	0.083522	0.052597	6382.401855
9512.167898	0.083511	0.052597	6462.071289
9512.168810	0.083481	0.052597	6538.206543
9512.169730	0.083661	0.052597	6615.174805
9512.170626	0.083544	0.052597	6690.029785
9512.171573	0.083500	0.052597	6769.104004
9512.172499	0.083492	0.052597	6846.417969
9513.253334	0.871600	0.038961	389.605347
9513.254253	1.312665	0.038961	1595.944214
9513.255157	1.322274	0.038961	2791.280273
9513.256107	1.295186	0.038961	4021.706543
9513.257016	1.266343	0.038961	5172.812012
9513.257925	0.949274	0.038961	6035.701660
9513.258808	0.132532	0.038961	6152.727051
9513.259742	0.083533	0.038961	6230.746582
9513.260646	0.083536	0.038961	6306.263672
9513.261545	0.083470	0.038961	6381.303711
9513.262429	0.083558	0.038961	6455.169434
9513.263388	0.083606	0.038961	6535.347656
9513.264293	0.083606	0.038961	6611.011230
9513.265190	0.083599	0.038961	6685.999023
9513.266126	0.083588	0.038961	6764.237305
9513.267033	0.083588	0.038961	6840.051270
9514.199531	0.893910	0.051960	420.137665
9514.200439	1.314423	0.051960	1613.633423
9514.201371	1.321216	0.051960	2845.006592
9514.202326	1.292886	0.051960	4079.712402
9514.203243	1.264310	0.051960	5239.084961
9514.204146	0.887296	0.051960	6040.313477
9514.205098	0.111654	0.051960	6146.607910
9514.206033	0.083397	0.051960	6224.584473
9514.206928	0.083536	0.051960	6299.349609
9514.207852	0.083478	0.051960	6376.482910
9514.208791	0.083577	0.051960	6454.961426
9514.209705	0.083496	0.051960	6531.276855
9514.210596	0.083529	0.051960	6605.701172
9514.211538	0.083558	0.051960	6684.413086
9514.212479	0.083547	0.051960	6763.031250
9514.213382	0.083591	0.051960	6838.514160
9515.299273	0.866243	0.041539	379.414276
9515.300261	1.317341	0.041539	1680.947510
9515.301172	1.320626	0.041539	2884.038086
9515.302068	1.293867	0.041539	4043.343262
9515.303007	1.265332	0.041539	5231.490234
9515.303931	0.885813	0.041539	6049.981445
9515.304824	0.117275	0.041539	6154.708496
9515.305710	0.083383	0.041539	6228.585449
9515.306640	0.083470	0.041539	6306.212891
9515.307552	0.083481	0.041539	6382.348145
9515.308452	0.083481	0.041539	6457.481445
9515.309338	0.083496	0.041539	6531.458984
9515.310286	0.083536	0.041539	6610.651367
9515.311188	0.083452	0.041539	6685.925293
9515.312083	0.083496	0.041539	6760.654297
9515.313018	0.083547	0.041539	6838.770996
9516.245450	0.868158	0.048967	380.253204
9516.246436	1.317524	0.048967	1679.332153
9516.247357	1.320315	0.048967	2895.342285
9516.248260	1.293289	0.048967	4063.181885
9516.249193	1.264856	0.048967	5243.292480
9516.250108	0.883488	0.048967	6051.683594
9516.251006	0.116400	0.048967	6156.210937
9516.251894	0.083386	0.048967	6230.257812
9516.252846	0.083646	0.048967	6309.889160
9516.253736	0.083525	0.048967	6384.226562
9516.254642	0.083522	0.048967	6459.897461
9516.255529	0.083591	0.048967	6534.042969
9516.256476	0.083602	0.048967	6613.214355
9516.257386	0.083551	0.048967	6689.245605
9516.258283	0.083514	0.048967	6764.158203
9516.259212	0.083551	0.048967	6841.777344
9517.340102	0.857520	0.041229	373.020996
9517.341033	1.311310	0.041229	1593.850464
9517.341983	1.321044	0.041229	2848.841797
9517.342908	1.293724	0.041229	4045.536621
9517.343804	1.265559	0.041229	5179.477539
9517.344757	0.891614	0.041229	6029.185547
9517.345696	0.113921	0.041229	6136.157227
9517.346589	0.083394	0.041229	6210.627441
9517.347509	0.083467	0.041229	6287.416992
9517.348440	0.083397	0.041229	6365.059570
9517.349361	0.083452	0.041229	6441.918945
9517.350255	0.083470	0.041229	6516.541504
9517.351193	0.083405	0.041229	6594.774902
9517.352127	0.083401	0.041229	6672.671387
9517.353046	0.083522	0.041229	6749.427734
9517.353934	0.083445	0.041229	6823.526855
9518.293460	0.872732	0.047662	387.492981
9518.294371	1.312401	0.047662	1583.090332
9518.295274	1.322318	0.047662	2777.143555
9518.296215	1.295204	0.047662	3995.930176
9518.297139	1.266174	0.047662	5165.875000
9518.298055	0.947315	0.047662	6033.615234
9518.298943	0.131162	0.047662	6150.087402
9518.299892	0.083401	0.047662	6229.234863
9518.300789	0.083540	0.047662	6304.170410
9518.301675	0.083463	0.047662	6378.118652
9518.302594	0.083463	0.047662	6454.821289
9518.303512	0.083492	0.047662	6531.467285
9518.304419	0.083485	0.047662	6607.188477
9518.305313	0.083511	0.047662	6681.847168
9518.306241	0.083518	0.047662	6759.352051
9518.307151	0.083562	0.047662	6835.393555
9519.378946	0.901080	0.046180	443.331512
9519.379856	1.315818	0.046180	1640.725830
9519.380762	1.321377	0.046180	2837.893555
9519.381659	1.294625	0.046180	3999.172363
9519.382615	1.265189	0.046180	5208.693359
9519.383541	0.893397	0.046180	6035.979004
9519.384438	0.117883	0.046180	6141.720215
9519.385360	0.083397	0.046180	6218.612305
9519.386276	0.083569	0.046180	6295.161621
9519.387187	0.083408	0.046180	6371.146484
9519.388083	0.083522	0.046180	6445.981934
9519.389033	0.083478	0.046180	6525.285645
9519.389931	0.083544	0.046180	6600.308105
9519.390828	0.083503	0.046180	6675.210449
9519.391713	0.083492	0.046180	6749.101074
9519.392645	0.083500	0.046180	6826.922852
9520.343541	0.884934	0.047835	424.768341
9520.344475	1.316664	0.047835	1654.532227
9520.345404	1.320465	0.047835	2881.244141
9520.346302	1.293607	0.047835	4042.903320
9520.347223	1.265076	0.047835	5208.038086
9520.348188	0.850807	0.047835	6029.066895
9520.349112	0.107106	0.047835	6128.032715
9520.349998	0.083320	0.047835	6201.854492
9520.350952	0.083456	0.047835	6281.471191
9520.351882	0.083470	0.047835	6359.098633
9520.352785	0.083511	0.047835	6434.508789
9520.353697	0.083478	0.047835	6510.640625
9520.354628	0.083434	0.047835	6588.317383
9520.355566	0.083445	0.047835	6666.588867
9520.356468	0.083445	0.047835	6741.855957
9520.357391	0.083405	0.047835	6818.838379
9521.417686	0.863350	0.045954	379.873840
9521.418647	1.312178	0.045954	1640.876709
9521.419557	1.321395	0.045954	2843.346436
9521.420461	1.294358	0.045954	4013.445801
9521.421363	1.266376	0.045954	5155.716797
9521.422322	0.909379	0.045954	6027.811035
9521.423225	0.119469	0.045954	6135.691406
9521.424130	0.083357	0.045954	6211.129395
9521.425022	0.083540	0.045954	6285.646973
9521.425956	0.083566	0.045954	6363.697266
9521.426858	0.083478	0.045954	6438.994141
9521.427755	0.083544	0.045954	6513.932617
9521.428646	0.083485	0.045954	6588.317871
9521.429583	0.083654	0.045954	6666.701172
9521.430483	0.083525	0.045954	6741.874023
9521.431379	0.083569	0.045954	6816.751953
9522.391549	0.903929	0.048182	438.405762
9522.392485	1.317448	0.048182	1671.536621
9522.393390	1.320853	0.048182	2866.908691
9522.394316	1.293446	0.048182	4064.639648
9522.395258	1.264072	0.048182	5255.395508
9522.396189	0.849097	0.048182	6045.904297
9522.397077	0.112288	0.048182	6145.615723
9522.398020	0.083394	0.048182	6224.255859
9522.398952	0.083452	0.048182	6302.033203
9522.399851	0.083405	0.048182	6377.013672
9522.400766	0.083514	0.048182	6453.429199
9522.401695	0.083419	0.048182	6530.925781
9522.402627	0.083485	0.048182	6608.733887
9522.403525	0.083507	0.048182	6683.723145
9522.404447	0.083478	0.048182	6760.689453
9522.405385	0.083485	0.048182	6838.998535
9523.458505	0.861262	0.046659	377.232849
9523.459400	1.310596	0.046659	1550.216064
9523.460366	1.321205	0.046659	2826.500000
9523.461300	1.293823	0.046659	4034.930908
9523.462203	1.265801	0.046659	5177.949219
9523.463160	0.892910	0.046659	6032.464355
9523.464078	0.114082	0.046659	6137.191895
9523.464996	0.083324	0.046659	6213.683105
9523.465884	0.083474	0.046659	6287.808105
9523.466833	0.083408	0.046659	6366.962402
9523.467753	0.083489	0.046659	6443.771973
9523.468673	0.083533	0.046659	6520.622070
9523.469561	0.083412	0.046659	6594.691895
9523.470500	0.083441	0.046659	6673.042969
9523.471424	0.083452	0.046659	6750.152832
9523.472325	0.083478	0.046659	6825.366211
9524.436434	0.871337	0.047992	391.230164
9524.437340	1.312412	0.047992	1580.275635
9524.438275	1.321769	0.047992	2816.129395
9524.439183	1.294680	0.047992	3991.699219
9524.440090	1.266625	0.047992	5140.527832
9524.440991	0.979893	0.047992	6023.411133
9524.441940	0.128240	0.047992	6145.110840
9524.442836	0.083339	0.047992	6219.782227
9524.443734	0.083416	0.047992	6294.689453
9524.444623	0.083474	0.047992	6368.897949
9524.445578	0.083529	0.047992	6448.667969
9524.446488	0.083533	0.047992	6524.682617
9524.447385	0.083489	0.047992	6599.572266
9524.448311	0.083562	0.047992	6676.950684
9524.449212	0.083503	0.047992	6752.187500
9524.450110	0.083419	0.047992	6827.098145
9525.507571	0.875189	0.042888	412.214111
9525.508478	1.313632	0.042888	1603.677856
9525.509371	1.321970	0.042888	2784.197266
9525.510295	1.295061	0.042888	3980.833496
9525.511249	1.265435	0.042888	5188.058105
9525.512188	0.890684	0.042888	6024.410156
9525.513082	0.117982	0.042888	6129.886230
9525.514022	0.083397	0.042888	6208.279785
9525.514953	0.083503	0.042888	6286.021484
9525.515872	0.083481	0.042888	6362.740723
9525.516758	0.083441	0.042888	6436.669434
9525.517701	0.083463	0.042888	6515.375000
9525.518638	0.083485	0.042888	6593.600586
9525.519526	0.083536	0.042888	6667.780762
9525.520437	0.083496	0.042888	6743.845703
9525.521372	0.083507	0.042888	6821.924805
9526.476241	0.865686	0.051614	383.498932
9526.477141	1.311141	0.051614	1563.526123
9526.478034	1.322684	0.051614	2744.683105
9526.478985	1.295273	0.051614	3976.488281
9526.479881	1.266859	0.051614	5111.594238
9526.480817	0.967009	0.051614	6016.714844
9526.481711	0.134678	0.051614	6137.116699
9526.482648	0.083419	0.051614	6215.280273
9526.483554	0.083459	0.051614	6290.894531
9526.484443	0.083489	0.051614	6365.116211
9526.485377	0.083544	0.051614	6443.145996
9526.486288	0.083481	0.051614	6519.197754
9526.487186	0.083481	0.051614	6594.164062
9526.488074	0.083500	0.051614	6668.312012
9526.489013	0.083646	0.051614	6746.855957
9526.489914	0.083485	0.051614	6822.076172
9527.555552	0.870527	0.039364	391.737305
9527.556453	1.311962	0.039364	1573.814697
9527.557348	1.322728	0.039364	2757.656494
9527.558289	1.295039	0.039364	3976.288086
9527.559211	1.266508	0.039364	5144.007812
9527.560127	0.959209	0.039364	6022.643066
9527.561015	0.133022	0.039364	6140.767090
9527.561976	0.083445	0.039364	6220.957520
9527.562879	0.083459	0.039364	6296.321289
9527.563772	0.083533	0.039364	6370.916016
9527.564713	0.083606	0.039364	6449.589355
9527.565611	0.083599	0.039364	6524.661133
9527.566503	0.083507	0.039364	6599.149414
9527.567395	0.083558	0.039364	6673.683594
9527.568328	0.083463	0.039364	6751.554687
9527.569230	0.083544	0.039364	6826.911133
9528.516100	0.909800	0.053257	449.441071
9528.517020	1.316671	0.053257	1660.778442
9528.517955	1.320194	0.053257	2895.159912
9528.518852	1.293091	0.053257	4055.062500
9528.519808	1.263655	0.053257	5263.116211
9528.520739	0.843603	0.053257	6048.511230
9528.521632	0.110793	0.053257	6147.449707
9528.522569	0.083335	0.053257	6225.534668
9528.523492	0.083427	0.053257	6302.537109
9528.524410	0.083456	0.053257	6379.149414
9528.525306	0.083540	0.053257	6454.001465
9528.526238	0.083518	0.053257	6531.840332
9528.527169	0.083481	0.053257	6609.561523
9528.528085	0.083467	0.053257	6686.017090
9528.528976	0.083470	0.053257	6760.389160
9528.529929	0.083467	0.053257	6839.933105
9529.603533	0.860724	0.040165	377.857758
9529.604505	1.312273	0.040165	1653.387207
9529.605414	1.320710	0.040165	2853.913086
9529.606327	1.293743	0.040165	4035.100098
9529.607228	1.265618	0.040165	5175.421875
9529.608182	0.896019	0.040165	6030.224121
9529.609084	0.116880	0.040165	6135.649902
9529.609986	0.083317	0.040165	6210.801758
9529.610872	0.083445	0.040165	6284.733887
9529.611806	0.083547	0.040165	6362.767090
9529.612715	0.083518	0.040165	6438.685059
9529.613609	0.083481	0.040165	6513.317383
9529.614553	0.083544	0.040165	6592.182617
9529.615452	0.083584	0.040165	6667.324707
9529.616354	0.083522	0.040165	6742.661133
9529.617242	0.083481	0.040165	6816.792480
9530.555858	0.870308	0.048415	382.935364
9530.556842	1.316884	0.048415	1678.748779
9530.557769	1.320333	0.048415	2902.697754
9530.558660	1.293464	0.048415	4055.174316
9530.559590	1.264618	0.048415	5231.269043
9530.560534	0.859644	0.048415	6042.772461
9530.561447	0.110647	0.048415	6143.792969
9530.562339	0.083430	0.048415	6218.212891
9530.563271	0.083503	0.048415	6296.038086
9530.564212	0.083514	0.048415	6374.625000
9530.565110	0.083580	0.048415	6449.680176
9530.566024	0.083580	0.048415	6526.072754
9530.566964	0.083555	0.048415	6604.614258
9530.567875	0.083518	0.048415	6680.699219
9530.568764	0.083511	0.048415	6754.940430
9530.569711	0.083522	0.048415	6834.035645
9531.651611	0.940031	0.038127	488.815857
9531.652538	1.318165	0.038127	1710.755127
9531.653441	1.320421	0.038127	2903.095215
9531.654336	1.293025	0.038127	4060.352539
9531.655282	1.264050	0.038127	5256.144043
9531.656196	0.870743	0.038127	6052.003418
9531.657087	0.114576	0.038127	6154.090820
9531.658019	0.083485	0.038127	6231.898926
9531.658930	0.083547	0.038127	6308.010742
9531.659839	0.083503	0.038127	6383.915527
9531.660728	0.083540	0.038127	6458.182617
9531.661684	0.083518	0.038127	6538.025879
9531.662593	0.083518	0.038127	6613.943848
9531.663488	0.083566	0.038127	6688.735352
9531.664380	0.083632	0.038127	6763.334961
9531.665318	0.083569	0.038127	6841.723145
9532.597728	0.868942	0.052476	388.416931
9532.598624	1.311566	0.052476	1563.580322
9532.599558	1.322128	0.052476	2798.447754
9532.600505	1.294237	0.052476	4024.090332
9532.601427	1.265438	0.052476	5190.824219
9532.602329	0.930612	0.052476	6030.235840
9532.603260	0.120670	0.052476	6142.579590
9532.604185	0.083372	0.052476	6219.698242
9532.605095	0.083533	0.052476	6295.712891
9532.605987	0.083525	0.052476	6370.217773
9532.606934	0.083452	0.052476	6449.247070
9532.607866	0.083448	0.052476	6527.020996
9532.608771	0.083500	0.052476	6602.588379
9532.609700	0.083478	0.052476	6680.139160
9532.610641	0.083610	0.052476	6758.815918
9532.611559	0.083558	0.052476	6835.522461
9533.694412	0.858190	0.043565	375.887085
9533.695361	1.311493	0.043565	1620.493896
9533.696273	1.321165	0.043565	2825.395996
9533.697204	1.293984	0.043565	4030.095215
9533.698099	1.266127	0.043565	5163.278809
9533.699060	0.899960	0.043565	6028.140137
9533.699968	0.117224	0.043565	6134.579590
9533.700881	0.083419	0.043565	6210.741211
9533.701770	0.083547	0.043565	6285.014648
9533.702727	0.083478	0.043565	6364.902832
9533.703651	0.083518	0.043565	6442.073730
9533.704540	0.083511	0.043565	6516.314941
9533.705478	0.083470	0.043565	6594.610352
9533.706373	0.083481	0.043565	6669.326172
9533.707291	0.083394	0.043565	6745.881348
9533.708186	0.083503	0.043565	6820.616699
9534.644739	0.909866	0.048210	439.465179
9534.645661	1.315854	0.048210	1652.682983
9534.646559	1.321271	0.048210	2839.184082
9534.647510	1.293417	0.048210	4069.223389
9534.648416	1.264959	0.048210	5215.275879
9534.649327	0.908112	0.048210	6042.565430
9534.650214	0.122271	0.048210	6151.019531
9534.651157	0.083514	0.048210	6229.773437
9534.652064	0.083544	0.048210	6305.547363
9534.652963	0.083481	0.048210	6380.597168
9534.653892	0.083533	0.048210	6458.199219
9534.654795	0.083584	0.048210	6533.675781
9534.655703	0.083470	0.048210	6609.466797
9534.656593	0.083577	0.048210	6683.850098
9534.657521	0.083599	0.048210	6761.429687
9534.658427	0.083591	0.048210	6837.163574
9535.738321	0.860995	0.043275	372.810791
9535.739251	1.311182	0.043275	1592.209717
9535.740191	1.321381	0.043275	2834.307617
9535.741113	1.294109	0.043275	4027.476074
9535.742015	1.265786	0.043275	5169.215332
9535.742962	0.897883	0.043275	6019.510742
9535.743893	0.113203	0.043275	6124.902832
9535.744812	0.083423	0.043275	6201.568359
9535.745699	0.083500	0.043275	6275.632812
9535.746646	0.083522	0.043275	6354.728027
9535.747591	0.083533	0.043275	6433.666504
9535.748483	0.083544	0.043275	6508.187500
9535.749394	0.083511	0.043275	6584.265625
9535.750330	0.083518	0.043275	6662.438477
9535.751248	0.083525	0.043275	6739.114746
9535.752148	0.083470	0.043275	6814.238281
9536.689651	0.892668	0.045728	424.910187
9536.690553	1.313851	0.045728	1610.004028
9536.691508	1.320732	0.045728	2871.303467
9536.692411	1.293724	0.045728	4039.536621
9536.693329	1.264984	0.045728	5200.791992
9536.694236	0.914619	0.045728	6030.351562
9536.695174	0.115763	0.045728	6138.937012
9536.696077	0.083416	0.045728	6214.261230
9536.696972	0.083503	0.045728	6288.996582
9536.697896	0.083551	0.045728	6366.197754
9536.698806	0.083448	0.045728	6442.135742
9536.699704	0.083529	0.045728	6517.145020
9536.700591	0.083584	0.045728	6591.284180
9536.701540	0.083562	0.045728	6670.584473
9536.702437	0.083503	0.045728	6745.486816
9536.703359	0.083434	0.045728	6822.412598
9537.782221	0.858783	0.043150	377.005707
9537.783119	1.310284	0.043150	1553.641235
9537.784069	1.321846	0.043150	2809.394531
9537.784986	1.294472	0.043150	3996.424805
9537.785895	1.266431	0.043150	5147.610352
9537.786823	0.928872	0.043150	6009.603516
9537.787746	0.122600	0.043150	6122.763184
9537.788654	0.083342	0.043150	6198.437988
9537.789548	0.083489	0.043150	6273.077148
9537.790491	0.083621	0.043150	6351.931152
9537.791391	0.083514	0.043150	6427.094238
9537.792292	0.083485	0.043150	6502.314453
9537.793181	0.083500	0.043150	6576.545898
9537.794119	0.083613	0.043150	6654.975098
9537.795028	0.083595	0.043150	6730.962891
9537.795929	0.083551	0.043150	6806.242187
9538.735614	0.883202	0.046659	421.287292
9538.736548	1.315935	0.046659	1650.370605
9538.737445	1.321051	0.046659	2835.353516
9538.738383	1.293640	0.046659	4048.788086
9538.739323	1.263948	0.046659	5236.898926
9538.740272	0.833445	0.046659	6027.837891
9538.741170	0.108962	0.046659	6125.686035
9538.742087	0.083324	0.046659	6202.094238
9538.743025	0.083533	0.046659	6280.447754
9538.743939	0.083489	0.046659	6356.756348
9538.744831	0.083474	0.046659	6431.215332
9538.745779	0.083536	0.046659	6510.407715
9538.746720	0.083481	0.046659	6588.963867
9538.747617	0.083540	0.046659	6663.899414
9538.748544	0.083511	0.046659	6741.313965
9538.749489	0.083558	0.046659	6820.276367
9539.823044	0.854392	0.042244	369.951782
9539.823993	1.312145	0.042244	1615.177124
9539.824914	1.321494	0.042244	2832.273193
9539.825823	1.294570	0.042244	4009.037598
9539.826716	1.266621	0.042244	5140.130371
9539.827695	0.901545	0.042244	6022.743164
9539.828594	0.119630	0.042244	6130.290527
9539.829484	0.083470	0.042244	6204.579102
9539.830401	0.083511	0.042244	6281.158691
9539.831318	0.083525	0.042244	6357.751465
9539.832214	0.083525	0.042244	6432.590332
9539.833107	0.083478	0.042244	6507.135742
9539.834044	0.083588	0.042244	6585.457520
9539.834954	0.083481	0.042244	6661.425781
9539.835857	0.083503	0.042244	6736.829590
9539.836747	0.083544	0.042244	6811.183594
9540.779522	0.909705	0.048319	441.206757
9540.780454	1.316591	0.048319	1668.269165
9540.781349	1.321069	0.048319	2850.626221
9540.782275	1.293351	0.048319	4048.269043
9540.783204	1.264493	0.048319	5222.983398
9540.784130	0.884985	0.048319	6042.479980
9540.785025	0.116521	0.048319	6146.766113
9540.785988	0.083364	0.048319	6227.045898
9540.786915	0.083438	0.048319	6304.392578
9540.787815	0.083496	0.048319	6379.539062
9540.788742	0.083489	0.048319	6456.933105
9540.789675	0.083416	0.048319	6534.759766
9540.790609	0.083496	0.048319	6612.745117
9540.791505	0.083507	0.048319	6687.567383
9540.792435	0.083408	0.048319	6765.137207
9540.793369	0.083459	0.048319	6843.088379
9541.867997	0.875782	0.043489	390.598999
9541.868905	1.312361	0.043489	1582.222656
9541.869798	1.322611	0.043489	2763.314209
9541.870731	1.295885	0.043489	3972.375000
9541.871658	1.266515	0.043489	5146.434570
9541.872575	0.960223	0.043489	6026.959473
9541.873460	0.134542	0.043489	6146.029297
9541.874409	0.083372	0.043489	6225.148926
9541.875309	0.083507	0.043489	6300.305176
9541.876227	0.083500	0.043489	6376.958008
9541.877112	0.083419	0.043489	6450.784180
9541.878050	0.083500	0.043489	6529.106934
9541.878949	0.083416	0.043489	6604.097656
9541.879842	0.083452	0.043489	6678.620605
9541.880768	0.083511	0.043489	6755.951660
9541.881667	0.083467	0.043489	6830.988281
9542.824407	0.876731	0.046788	393.652222
9542.825305	1.311768	0.046788	1571.619507
9542.826202	1.321937	0.046788	2757.397461
9542.827168	1.294457	0.046788	4007.842773
9542.828085	1.265848	0.046788	5168.625488
9542.828999	0.939921	0.046788	6027.712891
9542.829934	0.124508	0.046788	6144.127930
9542.830844	0.083397	0.046788	6220.019531
9542.831749	0.083500	0.046788	6295.586914
9542.832638	0.083452	0.046788	6369.775879
9542.833578	0.083511	0.046788	6448.275879
9542.834482	0.083525	0.046788	6523.782715
9542.835377	0.083448	0.046788	6598.469238
9542.836285	0.083427	0.046788	6674.220703
9542.837213	0.083551	0.046788	6751.755859
9542.838121	0.083423	0.046788	6827.503906
9543.912921	0.862910	0.044548	383.132111
9543.913821	1.311735	0.044548	1563.693237
9543.914747	1.322186	0.044548	2788.037842
9543.915687	1.294171	0.044548	4004.558838
9543.916633	1.265035	0.044548	5201.282227
9543.917545	0.907376	0.044548	6028.808594
9543.918478	0.116451	0.044548	6137.458008
9543.919411	0.083375	0.044548	6215.247070
9543.920325	0.083529	0.044548	6291.592773
9543.921212	0.083478	0.044548	6365.637695
9543.922151	0.083533	0.044548	6444.074707
9543.923087	0.083474	0.044548	6522.206543
9543.923986	0.083606	0.044548	6597.368164
9543.924904	0.083500	0.044548	6674.020996
9543.925847	0.083478	0.044548	6752.740723
9543.926765	0.083445	0.044548	6829.343262
9544.866251	0.863452	0.050151	379.918945
9544.867224	1.315832	0.050151	1660.223999
9544.868131	1.320817	0.050151	2858.204590
9544.869026	1.294468	0.050151	4016.753418
9544.869951	1.265706	0.050151	5187.531250
9544.870894	0.899773	0.050151	6036.017090
9544.871800	0.117363	0.050151	6142.348145
9544.872688	0.083317	0.050151	6216.333496
9544.873636	0.083558	0.050151	6295.546875
9544.874551	0.083445	0.050151	6371.898926
9544.875453	0.083489	0.050151	6447.205566
9544.876338	0.083533	0.050151	6521.131836
9544.877277	0.083522	0.050151	6599.558594
9544.878179	0.083573	0.050151	6674.941406
9544.879069	0.083555	0.050151	6749.305176
9544.879994	0.083525	0.050151	6826.566406
9545.958894	0.908536	0.042373	430.646240
9545.959838	1.317122	0.042373	1674.008911
9545.960771	1.320143	0.042373	2905.702148
9545.961666	1.293219	0.042373	4063.133301
9545.962594	1.264490	0.042373	5236.580078
9545.963552	0.838810	0.042373	6040.160156
9545.964472	0.107556	0.042373	6139.111816
9545.965357	0.083342	0.042373	6212.869629
9545.966308	0.083540	0.042373	6292.316406
9545.967246	0.083423	0.042373	6370.566895
9545.968135	0.083500	0.042373	6444.798340
9545.969052	0.083525	0.042373	6521.391113
9545.969997	0.083456	0.042373	6600.256836
9545.970907	0.083536	0.042373	6676.274902
9545.971804	0.083386	0.042373	6751.072266
9545.972749	0.083405	0.042373	6829.889648
9546.910156	0.861511	0.049080	378.203430
9546.911131	1.316085	0.049080	1661.386475
9546.912030	1.320557	0.049080	2848.566895
9546.912953	1.293464	0.049080	4042.434570
9546.913860	1.264662	0.049080	5189.482910
9546.914815	0.871893	0.049080	6022.141113
9546.915746	0.110336	0.049080	6124.863770
9546.916639	0.083353	0.049080	6199.298340
9546.917574	0.083452	0.049080	6277.326172
9546.918487	0.083434	0.049080	6353.501465
9546.919407	0.083485	0.049080	6430.307617
9546.920297	0.083463	0.049080	6504.589844
9546.921263	0.083522	0.049080	6585.271973
9546.922187	0.083500	0.049080	6662.425781
9546.923079	0.083445	0.049080	6736.858398
9546.923990	0.083445	0.049080	6812.876465
9548.004822	0.872534	0.040907	389.150269
9548.005724	1.311588	0.040907	1572.202759
9548.006666	1.321666	0.040907	2817.212402
9548.007584	1.294735	0.040907	4005.779297
9548.008489	1.266486	0.040907	5151.948730
9548.009392	0.948721	0.040907	6008.643555
9548.010331	0.125284	0.040907	6126.285645
9548.011228	0.083445	0.040907	6201.135742
9548.012116	0.083503	0.040907	6275.286621
9548.013062	0.083511	0.040907	6354.287598
9548.013982	0.083518	0.040907	6431.124023
9548.014887	0.083478	0.040907	6506.671387
9548.015775	0.083489	0.040907	6580.809570
9548.016713	0.083566	0.040907	6659.194336
9548.017629	0.083452	0.040907	6735.636719
9548.018532	0.083503	0.040907	6811.040527
9548.954059	0.858223	0.048262	374.185059
9548.954989	1.311511	0.048262	1593.890503
9548.955934	1.320934	0.048262	2842.172852
9548.956858	1.293541	0.048262	4037.405029
9548.957755	1.265438	0.048262	5172.502930
9548.958713	0.885963	0.048262	6021.255859
9548.959658	0.111566	0.048262	6126.686035
9548.960561	0.083481	0.048262	6202.069824
9548.961475	0.083529	0.048262	6278.415527
9548.962406	0.083496	0.048262	6356.150391
9548.963321	0.083569	0.048262	6432.616211
9548.964211	0.083551	0.048262	6506.976562
9548.965157	0.083514	0.048262	6585.980957
9548.966075	0.083529	0.048262	6662.660645
9548.966978	0.083562	0.048262	6738.117187
9548.967885	0.083474	0.048262	6813.828125
9550.047705	0.865704	0.040508	383.507019
9550.048618	1.312266	0.040508	1581.605469
9550.049515	1.322384	0.040508	2767.783936
9550.050460	1.295050	0.040508	3991.606201
9550.051388	1.265929	0.040508	5166.388184
9550.052315	0.930403	0.040508	6028.871582
9550.053200	0.127841	0.040508	6142.010254
9550.054151	0.083331	0.040508	6221.258301
9550.055046	0.083518	0.040508	6296.006836
9550.055956	0.083525	0.040508	6372.015137
9550.056852	0.083456	0.040508	6446.791504
9550.057800	0.083467	0.040508	6525.917969
9550.058721	0.083485	0.040508	6602.807617
9550.059615	0.083525	0.040508	6677.479492
9550.060544	0.083408	0.040508	6754.965820
9550.061456	0.083503	0.040508	6831.121094
9550.999045	0.897316	0.051823	446.863220
9550.999967	1.317425	0.051823	1661.529541
9551.000871	1.320718	0.051823	2855.458496
9551.001766	1.293823	0.051823	4013.430176
9551.002709	1.264969	0.051823	5206.296387
9551.003635	0.894225	0.051823	6034.348633
9551.004541	0.116503	0.051823	6139.899902
9551.005425	0.083342	0.051823	6213.574707
9551.006374	0.083529	0.051823	6292.843750
9551.007281	0.083481	0.051823	6368.561523
9551.008175	0.083536	0.051823	6443.243164
9551.009101	0.083562	0.051823	6520.621582
9551.010003	0.083540	0.051823	6595.974609
9551.010899	0.083503	0.051823	6670.793457
9551.011790	0.083500	0.051823	6745.191895
9551.012736	0.083657	0.051823	6824.331543
9552.089558	0.868092	0.041430	384.564758
9552.090483	1.312676	0.041430	1598.789795
9552.091387	1.321926	0.041430	2793.811035
9552.092324	1.294849	0.041430	4007.083984
9552.093228	1.266522	0.041430	5152.020020
9552.094139	0.963365	0.041430	6029.645996
9552.095025	0.135956	0.041430	6150.103027
9552.095959	0.083478	0.041430	6228.071289
9552.096868	0.083555	0.041430	6304.022461
9552.097776	0.083503	0.041430	6379.843750
9552.098677	0.083536	0.041430	6455.109863
9552.099603	0.083639	0.041430	6532.559570
9552.100513	0.083485	0.041430	6608.531250
9552.101409	0.083547	0.041430	6683.389648
9552.102350	0.083624	0.041430	6762.080078
9552.103247	0.083573	0.041430	6837.044922
9553.046985	0.861914	0.050276	376.656433
9553.047939	1.314060	0.050276	1630.269775
9553.048869	1.320773	0.050276	2858.588379
9553.049771	1.293981	0.050276	4025.759033
9553.050684	1.265398	0.050276	5181.067383
9553.051638	0.890713	0.050276	6030.807617
9553.052556	0.114060	0.050276	6135.514648
9553.053443	0.083419	0.050276	6209.507324
9553.054397	0.083452	0.050276	6289.120605
9553.055328	0.083470	0.050276	6366.831543
9553.056225	0.083427	0.050276	6441.665039
9553.057147	0.083525	0.050276	6518.675293
9553.058081	0.083514	0.050276	6596.677734
9553.058996	0.083492	0.050276	6673.073242
9553.059894	0.083503	0.050276	6748.059082
9553.060833	0.083573	0.050276	6826.534180
9554.129389	0.874171	0.042042	415.231293
9554.130344	1.317407	0.042042	1673.355225
9554.131241	1.320670	0.042042	2857.996582
9554.132138	1.294124	0.042042	4018.825439
9554.133083	1.264955	0.042042	5214.208008
9554.133993	0.899575	0.042042	6032.821289
9554.134920	0.116448	0.042042	6140.768555
9554.135807	0.083386	0.042042	6214.731934
9554.136751	0.083496	0.042042	6293.552246
9554.137656	0.083536	0.042042	6369.152832
9554.138543	0.083533	0.042042	6443.246582
9554.139473	0.083573	0.042042	6520.969238
9554.140395	0.083518	0.042042	6597.972656
9554.141301	0.083547	0.042042	6673.666504
9554.142189	0.083518	0.042042	6747.830566
9554.143134	0.083569	0.042042	6826.803711
9555.094985	0.870956	0.050671	381.478638
9555.095944	1.315704	0.050671	1643.239136
9555.096868	1.320538	0.050671	2863.416504
9555.097773	1.293904	0.050671	4034.399414
9555.098708	1.265039	0.050671	5217.210937
9555.099636	0.896433	0.050671	6049.101074
9555.100544	0.116602	0.050671	6154.975098
9555.101434	0.083412	0.050671	6229.211426
9555.102370	0.083628	0.050671	6307.487305
9555.103278	0.083514	0.050671	6383.318359
9555.104175	0.083496	0.050671	6458.214355
9555.105086	0.083566	0.050671	6534.342773
9555.106004	0.083628	0.050671	6611.113281
9555.106914	0.083558	0.050671	6687.151367
9555.107811	0.083573	0.050671	6762.116211
9555.108742	0.083595	0.050671	6839.943359
9556.169176	0.863199	0.043448	382.397369
9556.170068	1.310178	0.043448	1551.076416
9556.171046	1.321003	0.043448	2843.017822
9556.171966	1.293743	0.043448	4033.261230
9556.172861	1.265779	0.043448	5166.133301
9556.173791	0.922848	0.043448	6024.381836
9556.174724	0.119813	0.043448	6136.167480
9556.175657	0.083331	0.043448	6213.915527
9556.176556	0.083478	0.043448	6288.961914
9556.177457	0.083503	0.043448	6364.198730
9556.178392	0.083445	0.043448	6442.219727
9556.179331	0.083419	0.043448	6520.550293
9556.180231	0.083500	0.043448	6595.700195
9556.181150	0.083492	0.043448	6672.429687
9556.182085	0.083507	0.043448	6750.508789
9556.183001	0.083562	0.043448	6827.051758
9557.141961	0.857355	0.045865	375.521362
9557.142896	1.310790	0.045865	1601.109863
9557.143830	1.320604	0.045865	2834.554199
9557.144760	1.293402	0.045865	4037.417969
9557.145662	1.265098	0.045865	5178.536133
9557.146632	0.872585	0.045865	6024.943848
9557.147538	0.113134	0.045865	6127.442871
9557.148467	0.083397	0.045865	6204.918945
9557.149356	0.083423	0.045865	6279.082031
9557.150310	0.083386	0.045865	6358.632324
9557.151233	0.083496	0.045865	6435.699219
9557.152122	0.083525	0.045865	6509.953125
9557.153067	0.083525	0.045865	6588.884766
9557.153955	0.083423	0.045865	6662.964355
9557.154867	0.083485	0.045865	6739.102539
9557.155766	0.083492	0.045865	6814.162109
9558.211019	0.861233	0.046216	378.081268
9558.211989	1.315975	0.046216	1654.577393
9558.212901	1.320765	0.046216	2859.115234
9558.213808	1.293823	0.046216	4032.612793
9558.214702	1.265292	0.046216	5163.783691
9558.215671	0.890068	0.046216	6026.259766
9558.216576	0.116510	0.046216	6131.701172
9558.217471	0.083412	0.046216	6206.354980
9558.218399	0.083529	0.046216	6283.870117
9558.219305	0.083558	0.046216	6359.574219
9558.220206	0.083507	0.046216	6434.813965
9558.221093	0.083500	0.046216	6508.878418
9558.222037	0.083577	0.046216	6587.774902
9558.222936	0.083489	0.046216	6662.831543
9558.223831	0.083525	0.046216	6737.586914
9558.224734	0.083463	0.046216	6812.954102
9559.187973	0.894536	0.045708	439.217224
9559.188874	1.315232	0.045708	1624.241211
9559.189774	1.321102	0.045708	2813.233398
9559.190722	1.293329	0.045708	4039.309082
9559.191667	1.264131	0.045708	5233.912598
9559.192580	0.876683	0.045708	6034.324219
9559.193501	0.114261	0.045708	6139.559082
9559.194441	0.083390	0.045708	6217.945801
9559.195370	0.083489	0.045708	6295.506836
9559.196262	0.083529	0.045708	6370.014648
9559.197206	0.083474	0.045708	6448.814453
9559.198141	0.083430	0.045708	6526.821777
9559.199052	0.083525	0.045708	6602.913574
9559.199938	0.083423	0.045708	6676.826172
9559.200861	0.083514	0.045708	6753.910156
9559.201794	0.083463	0.045708	6831.781250
9560.256000	0.879551	0.046180	432.739014
9560.256919	1.315975	0.046180	1642.120361
9560.257847	1.320330	0.046180	2867.386230
9560.258741	1.293585	0.046180	4023.851562
9560.259695	1.264493	0.046180	5230.178223
9560.260606	0.870743	0.046180	6023.425293
9560.261526	0.111866	0.046180	6126.342285
9560.262426	0.083364	0.046180	6201.370117
9560.263386	0.083467	0.046180	6281.498047
9560.264306	0.083540	0.046180	6358.354980
9560.265198	0.083518	0.046180	6432.853027
9560.266126	0.083639	0.046180	6510.469727
9560.267033	0.083496	0.046180	6586.200684
9560.267953	0.083646	0.046180	6663.155273
9560.268843	0.083529	0.046180	6737.496094
9560.269793	0.083456	0.046180	6816.779297
9561.228750	0.867887	0.048943	382.738159
9561.229674	1.312859	0.048943	1595.819702
9561.230576	1.322120	0.048943	2788.372070
9561.231523	1.294464	0.048943	4014.229492
9561.232439	1.265830	0.048943	5173.729980
9561.233358	0.937251	0.048943	6035.063477
9561.234247	0.128412	0.048943	6149.221680
9561.235196	0.083496	0.048943	6228.459473
9561.236103	0.083522	0.048943	6304.213867
9561.236993	0.083492	0.048943	6378.521973
9561.237921	0.083555	0.048943	6456.060547
9561.238828	0.083492	0.048943	6531.788086
9561.239740	0.083430	0.048943	6607.876465
9561.240639	0.083507	0.048943	6682.949219
9561.241567	0.083621	0.048943	6760.549316
9561.242469	0.083566	0.048943	6835.925781
9562.301917	0.875369	0.044681	398.292725
9562.302811	1.311636	0.044681	1570.895020
9562.303757	1.321245	0.044681	2820.792969
9562.304695	1.293303	0.044681	4033.911377
9562.305617	1.264753	0.044681	5200.014160
9562.306529	0.901582	0.044681	6022.256836
9562.307481	0.114250	0.044681	6131.023437
9562.308419	0.083353	0.044681	6209.208984
9562.309324	0.083496	0.044681	6284.772949
9562.310241	0.083434	0.044681	6361.281738
9562.311179	0.083430	0.044681	6439.539062
9562.312093	0.083459	0.044681	6515.820801
9562.312982	0.083470	0.044681	6590.025879
9562.313925	0.083438	0.044681	6668.707520
9562.314859	0.083394	0.044681	6746.597168
9562.315754	0.083514	0.044681	6821.342773
9563.270607	0.859255	0.045656	376.353851
9563.271505	1.310442	0.045656	1553.130737
9563.272462	1.321626	0.045656	2817.926758
9563.273379	1.294493	0.045656	4004.977051
9563.274277	1.266185	0.045656	5142.011719
9563.275225	0.922247	0.045656	6016.302246
9563.276157	0.120051	0.045656	6128.189941
9563.277055	0.083335	0.045656	6203.024902
9563.277944	0.083551	0.045656	6277.301758
9563.278875	0.083533	0.045656	6355.070801
9563.279778	0.083536	0.045656	6430.503906
9563.280695	0.083536	0.045656	6507.106934
9563.281593	0.083474	0.045656	6582.066895
9563.282540	0.083514	0.045656	6661.155273
9563.283439	0.083481	0.045656	6736.205078
9563.284329	0.083500	0.045656	6810.520020
9564.350969	0.882649	0.043513	428.084747
9564.351893	1.315686	0.043513	1643.778687
9564.352792	1.321029	0.043513	2831.383789
9564.353682	1.294592	0.043513	3983.570801
9564.354632	1.265138	0.043513	5185.451660
9564.355563	0.898942	0.043513	6022.366211
9564.356470	0.117517	0.043513	6128.954102
9564.357356	0.083394	0.043513	6202.840820
9564.358307	0.083584	0.043513	6282.329102
9564.359214	0.083441	0.043513	6358.010254
9564.360110	0.083500	0.043513	6432.826172
9564.361036	0.083555	0.043513	6510.197754
9564.361940	0.083610	0.043513	6585.780762
9564.362835	0.083514	0.043513	6660.526367
9564.363721	0.083492	0.043513	6734.500488
9564.364656	0.083558	0.043513	6812.627441
9565.310444	0.881766	0.046876	415.311951
9565.311349	1.314078	0.046876	1604.552734
9565.312295	1.320923	0.046876	2854.145752
9565.313215	1.293413	0.046876	4044.085693
9565.314150	1.264395	0.046876	5226.294434
9565.315058	0.891713	0.046876	6035.969727
9565.316004	0.109761	0.046876	6139.803223
9565.316933	0.083357	0.046876	6217.241699
9565.317844	0.083514	0.046876	6293.323242
9565.318741	0.083577	0.046876	6368.291504
9565.319684	0.083555	0.046876	6447.083496
9565.320602	0.083452	0.046876	6523.692383
9565.321496	0.083518	0.046876	6598.357422
9565.322430	0.083540	0.046876	6676.383789
9565.323342	0.083492	0.046876	6752.528809
9565.324266	0.083485	0.046876	6829.668945
9566.398947	0.880247	0.044613	403.152924
9566.399845	1.311793	0.044613	1581.143311
9566.400741	1.321945	0.044613	2765.605713
9566.401697	1.294325	0.044613	4002.980469
9566.402614	1.265753	0.044613	5163.676270
9566.403515	0.956605	0.044613	6025.577637
9566.404434	0.131550	0.044613	6146.472168
9566.405356	0.083364	0.044613	6223.333984
9566.406264	0.083496	0.044613	6299.148437
9566.407154	0.083507	0.044613	6373.469727
9566.408096	0.083551	0.044613	6452.174805
9566.409002	0.083412	0.044613	6527.746094
9566.409897	0.083408	0.044613	6602.396484
9566.410781	0.083463	0.044613	6676.177734
9566.411725	0.083503	0.044613	6755.004883
9566.412628	0.083503	0.044613	6830.408691
9567.352276	0.870022	0.045958	388.029785
9567.353170	1.311083	0.045958	1560.137695
9567.354144	1.320974	0.045958	2846.766602
9567.355089	1.293032	0.045958	4068.682129
9567.355992	1.265032	0.045958	5211.005859
9567.356947	0.855516	0.045958	6028.023926
9567.357887	0.108772	0.045958	6130.269531
9567.358799	0.083489	0.045958	6206.411133
9567.359698	0.083485	0.045958	6281.464355
9567.360635	0.083525	0.045958	6359.727539
9567.361568	0.083536	0.045958	6437.666992
9567.362466	0.083485	0.045958	6512.636719
9567.363388	0.083522	0.045958	6589.643555
9567.364323	0.083562	0.045958	6667.773926
9567.365246	0.083496	0.045958	6744.840820
9567.366140	0.083529	0.045958	6819.515625
9568.444879	0.865569	0.042852	382.581421
9568.445830	1.313192	0.042852	1631.427124
9568.446782	1.320165	0.042852	2888.224121
9568.447713	1.292487	0.042852	4091.529053
9568.448604	1.264296	0.042852	5218.016602
9568.449563	0.844244	0.042852	6027.646973
9568.450511	0.105795	0.042852	6127.940430
9568.451411	0.083368	0.042852	6202.971680
9568.452333	0.083430	0.042852	6279.894531
9568.453272	0.083481	0.042852	6358.283691
9568.454187	0.083522	0.042852	6434.706055
9568.455078	0.083438	0.042852	6509.048828
9568.456036	0.083419	0.042852	6588.964355
9568.456966	0.083463	0.042852	6666.584961
9568.457863	0.083562	0.042852	6741.540039
9568.458794	0.083427	0.042852	6819.209961
9569.394168	0.875966	0.050868	425.719269
9569.395089	1.315734	0.050868	1637.510010
9569.395995	1.321051	0.050868	2834.382324
9569.396887	1.294472	0.050868	3989.050781
9569.397840	1.265361	0.050868	5194.939941
9569.398761	0.909888	0.050868	6032.946289
9569.399654	0.121436	0.050868	6141.388184
9569.400547	0.083331	0.050868	6215.803223
9569.401491	0.083544	0.050868	6294.668457
9569.402394	0.083485	0.050868	6370.055664
9569.403285	0.083452	0.050868	6444.411621
9569.404210	0.083555	0.050868	6521.699707
9569.405102	0.083500	0.050868	6596.181641
9569.406002	0.083514	0.050868	6671.344727
9569.406892	0.083533	0.050868	6745.688965
9569.407829	0.083580	0.050868	6824.003906
9570.489802	0.857878	0.040508	375.750763
9570.490770	1.315345	0.040508	1649.005127
9570.491675	1.320762	0.040508	2844.294434
9570.492590	1.293823	0.040508	4028.142578
9570.493492	1.265530	0.040508	5169.650391
9570.494457	0.892141	0.040508	6030.566406
9570.495366	0.115737	0.040508	6135.771484
9570.496265	0.083346	0.040508	6210.699707
9570.497196	0.083511	0.040508	6288.448242
9570.498100	0.083544	0.040508	6363.971680
9570.498996	0.083463	0.040508	6438.754883
9570.499883	0.083507	0.040508	6512.825684
9570.500827	0.083525	0.040508	6591.673828
9570.501729	0.083489	0.040508	6666.980469
9570.502625	0.083463	0.040508	6741.763672
9570.503531	0.083562	0.040508	6817.470703
9571.440092	0.873417	0.047565	396.531189
9571.440998	1.312907	0.047565	1586.024414
9571.441930	1.321267	0.047565	2817.445312
9571.442880	1.293541	0.047565	4046.309570
9571.443801	1.264786	0.047565	5211.177734
9571.444707	0.910298	0.047565	6035.907715
9571.445649	0.116880	0.047565	6146.008789
9571.446580	0.083423	0.047565	6223.675293
9571.447479	0.083507	0.047565	6298.748047
9571.448397	0.083503	0.047565	6375.404297
9571.449330	0.083503	0.047565	6453.312988
9571.450253	0.083448	0.047565	6530.335937
9571.451148	0.083536	0.047565	6605.101074
9571.452094	0.083525	0.047565	6684.116211
9571.453022	0.083445	0.047565	6761.553223
9571.453950	0.083496	0.047565	6839.037598
9572.533707	0.871545	0.038759	384.351501
9572.534668	1.314862	0.038759	1647.934082
9572.535575	1.321022	0.038759	2846.100830
9572.536468	1.294482	0.038759	4002.073730
9572.537407	1.265610	0.038759	5190.481934
9572.538335	0.915743	0.038759	6040.291992
9572.539236	0.121447	0.038759	6149.715332
9572.540129	0.083350	0.038759	6224.146484
9572.541091	0.083580	0.038759	6304.550781
9572.541999	0.083419	0.038759	6380.295410
9572.542893	0.083467	0.038759	6454.914551
9572.543808	0.083463	0.038759	6531.283203
9572.544719	0.083470	0.038759	6607.324707
9572.545614	0.083441	0.038759	6682.004395
9572.546506	0.083500	0.038759	6756.486328
9572.547441	0.083514	0.038759	6834.572266
9573.485011	0.867704	0.049330	381.789703
9573.485936	1.312017	0.049330	1595.405029
9573.486872	1.321121	0.049330	2831.973877
9573.487801	1.293519	0.049330	4033.653320
9573.488693	1.265797	0.049330	5162.744141
9573.489649	0.895708	0.049330	6019.041016
9573.490587	0.114752	0.049330	6126.678711
9573.491481	0.083448	0.049330	6201.281738
9573.492394	0.083485	0.049330	6277.503418
9573.493331	0.083540	0.049330	6355.780273
9573.494262	0.083445	0.049330	6433.467285
9573.495158	0.083525	0.049330	6508.306152
9573.496064	0.083547	0.049330	6584.000000
9573.497006	0.083540	0.049330	6662.694824
9573.497935	0.083507	0.049330	6740.272949
9573.498830	0.083478	0.049330	6814.985352
9574.576606	0.867404	0.041591	386.862000
9574.577499	1.310889	0.041591	1557.485596
9574.578448	1.321102	0.041591	2811.211670
9574.579379	1.293918	0.041591	4015.849609
9574.580282	1.265804	0.041591	5158.871094
9574.581227	0.903611	0.041591	6012.783203
9574.582156	0.116136	0.041591	6120.673828
9574.583073	0.083372	0.041591	6197.125488
9574.583963	0.083481	0.041591	6271.423828
9574.584908	0.083481	0.041591	6350.313965
9574.585817	0.083492	0.041591	6426.208496
9574.586742	0.083518	0.041591	6503.462891
9574.587628	0.083525	0.041591	6577.466309
9574.588573	0.083503	0.041591	6656.376953
9574.589477	0.083511	0.041591	6731.870605
9574.590376	0.083525	0.041591	6806.959961
9575.530971	0.872336	0.051473	386.445007
9575.531867	1.310892	0.051473	1561.004639
9575.532759	1.322388	0.051473	2740.574463
9575.533726	1.294654	0.051473	3992.505371
9575.534645	1.266127	0.051473	5156.075684
9575.535547	0.960044	0.051473	6022.035156
9575.536477	0.132001	0.051473	6144.795898
9575.537383	0.083474	0.051473	6220.423340
9575.538292	0.083434	0.051473	6296.264648
9575.539188	0.083481	0.051473	6371.063965
9575.540119	0.083533	0.051473	6448.833008
9575.541017	0.083489	0.051473	6523.806152
9575.541915	0.083412	0.051473	6598.709961
9575.542801	0.083427	0.051473	6672.625977
9575.543754	0.083547	0.051473	6752.246582
9575.544652	0.083427	0.051473	6827.163574
9576.618438	0.857798	0.042554	373.142059
9576.619389	1.313426	0.042554	1622.210693
9576.620319	1.320839	0.042554	2850.590576
9576.621219	1.294153	0.042554	4015.328125
9576.622140	1.265409	0.042554	5180.769531
9576.623093	0.897623	0.042554	6036.204590
9576.624008	0.114646	0.042554	6141.105469
9576.624903	0.083430	0.042554	6215.775391
9576.625856	0.083489	0.042554	6295.340332
9576.626777	0.083474	0.042554	6372.220215
9576.627698	0.083481	0.042554	6449.106445
9576.628586	0.083459	0.042554	6523.218262
9576.629517	0.083529	0.042554	6600.983887
9576.630442	0.083438	0.042554	6678.163574
9576.631341	0.083525	0.042554	6753.252930
9576.632261	0.083503	0.042554	6830.076172
9577.572824	0.871443	0.051493	386.049194
9577.573724	1.311489	0.051493	1566.389526
9577.574697	1.320802	0.051493	2851.529785
9577.575597	1.293713	0.051493	4015.872070
9577.576523	1.265471	0.051493	5187.698242
9577.577425	0.895151	0.051493	5995.125000
9577.578384	0.113529	0.051493	6103.999512
9577.579300	0.083456	0.051493	6180.444824
9577.580202	0.083511	0.051493	6255.771484
9577.581152	0.083507	0.051493	6335.103027
9577.582055	0.083412	0.051493	6410.423828
9577.582972	0.083536	0.051493	6487.026855
9577.583860	0.083467	0.051493	6561.145508
9577.584803	0.083445	0.051493	6639.833984
9577.585721	0.083547	0.051493	6716.530273
9577.586612	0.083456	0.051493	6790.889160
9578.663413	0.908591	0.039686	430.672302
9578.664336	1.315386	0.039686	1644.773193
9578.665239	1.320963	0.039686	2837.603027
9578.666170	1.293871	0.039686	4042.196777
9578.667088	1.265288	0.039686	5203.731445
9578.667998	0.920892	0.039686	6041.743164
9578.668887	0.124204	0.039686	6152.160645
9578.669831	0.083470	0.039686	6230.956543
9578.670732	0.083514	0.039686	6306.203125
9578.671633	0.083489	0.039686	6381.426270
9578.672524	0.083481	0.039686	6455.808105
9578.673461	0.083624	0.039686	6534.164062
9578.674374	0.083492	0.039686	6610.392578
9578.675273	0.083562	0.039686	6685.514648
9578.676207	0.083544	0.039686	6763.544434
9578.677109	0.083643	0.039686	6838.990234
9579.618798	0.873527	0.049148	404.442841
9579.619710	1.313331	0.049148	1602.201050
9579.620608	1.321604	0.049148	2789.001465
9579.621561	1.294164	0.049148	4022.339600
9579.622486	1.265105	0.049148	5192.561523
9579.623391	0.924034	0.049148	6028.812500
9579.624288	0.124358	0.049148	6140.361328
9579.625237	0.083423	0.049148	6219.529785
9579.626178	0.083405	0.049148	6298.013672
9579.627078	0.083547	0.049148	6373.206055
9579.628000	0.083496	0.049148	6450.189453
9579.628943	0.083503	0.049148	6528.933105
9579.629859	0.083540	0.049148	6605.455566
9579.630749	0.083459	0.049148	6679.734375
9579.631688	0.083496	0.049148	6758.137207
9579.632617	0.083474	0.049148	6835.684570
9580.708298	0.856937	0.040045	371.910767
9580.709227	1.310467	0.040045	1589.335083
9580.710160	1.321545	0.040045	2822.336914
9580.711075	1.294270	0.040045	4006.593994
9580.711972	1.266339	0.040045	5142.500000
9580.712935	0.922262	0.040045	6030.638184
9580.713836	0.122567	0.040045	6141.071289
9580.714733	0.083408	0.040045	6215.888672
9580.715621	0.083529	0.040045	6290.062500
9580.716566	0.083525	0.040045	6368.994141
9580.717466	0.083489	0.040045	6444.133789
9580.718362	0.083452	0.040045	6518.906738
9580.719287	0.083452	0.040045	6596.100098
9580.720190	0.083514	0.040045	6671.513672
9580.721100	0.083412	0.040045	6747.418457
9580.721998	0.083459	0.040045	6822.365234
9581.659638	0.890310	0.050784	425.568207
9581.660533	1.313705	0.050784	1601.334106
9581.661464	1.320828	0.050784	2831.024658
9581.662408	1.292878	0.050784	4051.501953
9581.663328	1.264417	0.050784	5214.765137
9581.664234	0.894467	0.050784	6025.151855
9581.665181	0.112859	0.050784	6132.029297
9581.666121	0.083456	0.050784	6210.477539
9581.667020	0.083525	0.050784	6285.566895
9581.667934	0.083423	0.050784	6361.815430
9581.668861	0.083386	0.050784	6439.114258
9581.669774	0.083540	0.050784	6515.386230
9581.670669	0.083518	0.050784	6590.134766
9581.671618	0.083459	0.050784	6669.337891
9581.672551	0.083485	0.050784	6747.229492
9581.673450	0.083474	0.050784	6822.272949
9582.754271	0.882048	0.042723	402.214020
9582.755175	1.312431	0.042723	1588.651123
9582.756074	1.322095	0.042723	2777.214355
9582.757028	1.294127	0.042723	4011.811523
9582.757940	1.265596	0.042723	5166.034668
9582.758870	0.931835	0.042723	6032.641113
9582.759757	0.126870	0.042723	6145.174805
9582.760719	0.083342	0.042723	6225.350098
9582.761611	0.083478	0.042723	6299.812500
9582.762499	0.083441	0.042723	6373.908203
9582.763426	0.083533	0.042723	6451.343262
9582.764333	0.083478	0.042723	6527.057617
9582.765247	0.083489	0.042723	6603.366211
9582.766144	0.083419	0.042723	6678.193359
9582.767075	0.083507	0.042723	6755.938477
9582.767982	0.083481	0.042723	6831.656250
9583.704527	0.861299	0.050736	379.832764
9583.705419	1.310233	0.050736	1548.560669
9583.706361	1.321820	0.050736	2793.715088
9583.707284	1.294570	0.050736	3988.603516
9583.708186	1.266610	0.050736	5131.085937
9583.709132	0.942828	0.050736	6023.001465
9583.710039	0.124720	0.050736	6136.123047
9583.710945	0.083353	0.050736	6211.641113
9583.711835	0.083423	0.050736	6285.887207
9583.712781	0.083463	0.050736	6364.843262
9583.713685	0.083533	0.050736	6440.356934
9583.714580	0.083485	0.050736	6515.076172
9583.715466	0.083489	0.050736	6589.047363
9583.716413	0.083489	0.050736	6668.111328
9583.717329	0.083529	0.050736	6744.624023
9583.718232	0.083500	0.050736	6820.024414
9584.798200	0.901036	0.042042	432.497467
9584.799129	1.316426	0.042042	1655.457031
9584.800036	1.320648	0.042042	2853.284912
9584.800967	1.293252	0.042042	4057.302490
9584.801908	1.263882	0.042042	5246.615234
9584.802834	0.863364	0.042042	6046.090332
9584.803723	0.114320	0.042042	6147.720703
9584.804683	0.083320	0.042042	6227.708008
9584.805618	0.083525	0.042042	6305.804199
9584.806516	0.083511	0.042042	6380.796875
9584.807444	0.083474	0.042042	6458.260742
9584.808366	0.083507	0.042042	6535.254395
9584.809279	0.083540	0.042042	6611.526367
9584.810180	0.083496	0.042042	6686.756348
9584.811115	0.083514	0.042042	6764.842285
9584.812040	0.083496	0.042042	6842.076172
9585.750494	0.878562	0.046796	401.502838
9585.751388	1.311848	0.046796	1574.295044
9585.752283	1.321813	0.046796	2757.317383
9585.753259	1.293992	0.046796	4020.253418
9585.754165	1.265808	0.046796	5167.075684
9585.755066	0.954587	0.046796	6027.158691
9585.756007	0.129133	0.046796	6148.673340
9585.756921	0.083331	0.046796	6224.838379
9585.757833	0.083467	0.046796	6300.959961
9585.758728	0.083500	0.046796	6375.692383
9585.759682	0.083595	0.046796	6455.441895
9585.760585	0.083474	0.046796	6530.818848
9585.761478	0.083514	0.046796	6605.397461
9585.762369	0.083529	0.046796	6679.821777
9585.763315	0.083496	0.046796	6758.809082
9585.764224	0.083448	0.046796	6834.663574
9586.840010	0.864331	0.043936	379.441345
9586.840913	1.310859	0.043936	1563.147217
9586.841807	1.322391	0.043936	2745.365234
9586.842760	1.295153	0.043936	3979.645508
9586.843669	1.266855	0.043936	5131.217285
9586.844577	0.979475	0.043936	6020.580566
9586.845525	0.134015	0.043936	6147.626465
9586.846425	0.083372	0.043936	6222.661133
9586.847316	0.083489	0.043936	6297.049805
9586.848211	0.083434	0.043936	6371.723145
9586.849141	0.083511	0.043936	6449.388184
9586.850045	0.083430	0.043936	6524.809082
9586.850949	0.083427	0.043936	6600.226562
9586.851835	0.083503	0.043936	6674.210449
9586.852781	0.083474	0.043936	6753.176758
9586.853688	0.083448	0.043936	6828.864746
9587.795418	0.867975	0.045700	385.380859
9587.796317	1.311273	0.045700	1564.215332
9587.797263	1.321029	0.045700	2813.908691
9587.798193	1.293845	0.045700	4017.184570
9587.799098	1.265702	0.045700	5162.644531
9587.800057	0.899352	0.045700	6025.123047
9587.800970	0.116246	0.045700	6131.255859
9587.801891	0.083383	0.045700	6208.051270
9587.802787	0.083540	0.045700	6282.903320
9587.803735	0.083470	0.045700	6362.033203
9587.804651	0.083474	0.045700	6438.495605
9587.805572	0.083522	0.045700	6515.418945
9587.806457	0.083533	0.045700	6589.345215
9587.807405	0.083544	0.045700	6668.544434
9587.808313	0.083525	0.045700	6744.385254
9587.809210	0.083536	0.045700	6819.317383
9588.881868	0.868026	0.045491	383.667542
9588.882840	1.316422	0.045491	1663.229736
9588.883747	1.320747	0.045491	2861.147461
9588.884640	1.293896	0.045491	4016.596924
9588.885567	1.265742	0.045491	5189.939941
9588.886486	0.922731	0.045491	6037.929687
9588.887379	0.124720	0.045491	6149.305176
9588.888265	0.083441	0.045491	6223.233887
9588.889200	0.083518	0.045491	6301.323242
9588.890112	0.083441	0.045491	6377.421387
9588.891015	0.083518	0.045491	6452.838379
9588.891905	0.083525	0.045491	6527.175781
9588.892862	0.083500	0.045491	6607.084961
9588.893769	0.083445	0.045491	6682.769531
9588.894657	0.083500	0.045491	6756.917480
9588.895580	0.083496	0.045491	6833.984375
9589.842398	0.870308	0.045990	391.638428
9589.843296	1.311621	0.045990	1569.474121
9589.844197	1.322032	0.045990	2760.625488
9589.845144	1.294563	0.045990	3986.576660
9589.846078	1.265489	0.045990	5168.543945
9589.846987	0.940701	0.045990	6023.640625
9589.847908	0.123970	0.045990	6137.816895
9589.848849	0.083364	0.045990	6216.262695
9589.849760	0.083533	0.045990	6292.360840
9589.850648	0.083438	0.045990	6366.453125
9589.851599	0.083445	0.045990	6445.809082
9589.852535	0.083452	0.045990	6523.920410
9589.853422	0.083456	0.045990	6597.945801
9589.854338	0.083474	0.045990	6674.408203
9589.855269	0.083496	0.045990	6752.143066
9589.856184	0.083489	0.045990	6828.535156
9590.922696	0.870015	0.047050	380.196411
9590.923670	1.316118	0.047050	1662.095459
9590.924609	1.319923	0.047050	2901.503174
9590.925502	1.293226	0.047050	4056.354248
9590.926458	1.263915	0.047050	5264.656738
9590.927392	0.844332	0.047050	6053.263184
9590.928315	0.107827	0.047050	6152.787598
9590.929206	0.083438	0.047050	6227.130371
9590.930148	0.083525	0.047050	6305.811523
9590.931077	0.083485	0.047050	6383.369141
9590.931991	0.083478	0.047050	6459.667969
9590.932883	0.083481	0.047050	6534.133301
9590.933845	0.083522	0.047050	6614.481445
9590.934764	0.083467	0.047050	6691.187500
9590.935654	0.083613	0.047050	6765.603516
9590.936591	0.083562	0.047050	6843.901367
9591.890385	0.868392	0.046272	382.960999
9591.891279	1.311134	0.046272	1555.114746
9591.892229	1.321747	0.046272	2810.774170
9591.893144	1.294662	0.046272	3995.389648
9591.894048	1.266687	0.046272	5140.474609
9591.894998	0.933644	0.046272	6027.436035
9591.895901	0.124149	0.046272	6139.542969
9591.896807	0.083606	0.046272	6215.290039
9591.897697	0.083741	0.046272	6289.819824
9591.898633	0.083738	0.046272	6368.198242
9591.899533	0.083752	0.046272	6443.575684
9591.900427	0.083661	0.046272	6518.368652
9591.901321	0.083719	0.046272	6593.213867
9591.902270	0.083767	0.046272	6672.708984
9591.903180	0.083690	0.046272	6748.867187
9591.904078	0.083730	0.046272	6824.057129
9592.962515	0.865360	0.047843	379.027740
9592.963459	1.312646	0.047843	1618.165894
9592.964396	1.320696	0.047843	2855.657715
9592.965318	1.293369	0.047843	4048.144043
9592.966213	1.265343	0.047843	5180.625977
9592.967165	0.888248	0.047843	6026.238281
9592.968104	0.113844	0.047843	6133.137695
9592.969002	0.083339	0.047843	6207.975586
9592.969923	0.083500	0.047843	6284.878906
9592.970859	0.083514	0.047843	6363.048340
9592.971791	0.083514	0.047843	6440.883789
9592.972692	0.083514	0.047843	6516.130371
9592.973613	0.083481	0.047843	6593.016602
9592.974556	0.083507	0.047843	6671.763672
9592.975486	0.083452	0.047843	6749.374023
9592.976376	0.083544	0.047843	6823.728027
9593.937354	0.856523	0.046305	375.157288
9593.938244	1.309526	0.046305	1540.635742
9593.939187	1.321857	0.046305	2787.146484
9593.940105	1.294768	0.046305	3975.743652
9593.941035	1.266032	0.046305	5153.152832
9593.941938	0.945861	0.046305	6007.264648
9593.942901	0.118923	0.046305	6121.787598
9593.943805	0.083394	0.046305	6197.175293
9593.944696	0.083518	0.046305	6271.589844
9593.945629	0.083580	0.046305	6349.570312
9593.946543	0.083529	0.046305	6425.916016
9593.947463	0.083525	0.046305	6502.759277
9593.948352	0.083646	0.046305	6577.120605
9593.949287	0.083617	0.046305	6655.302246
9593.950199	0.083522	0.046305	6731.474121
9593.951120	0.083547	0.046305	6808.421387
9595.003342	0.861053	0.047598	378.002472
9595.004235	1.310098	0.047598	1547.919556
9595.005205	1.321340	0.047598	2829.619629
9595.006113	1.294211	0.047598	4004.763672
9595.007018	1.266017	0.047598	5150.508789
9595.007972	0.915355	0.047598	6023.757812
9595.008877	0.120546	0.047598	6132.851562
9595.009781	0.083361	0.047598	6208.209473
9595.010670	0.083503	0.047598	6282.443848
9595.011624	0.083459	0.047598	6362.063965
9595.012519	0.083500	0.047598	6436.796387
9595.013422	0.083478	0.047598	6512.176758
9595.014307	0.083511	0.047598	6586.083984
9595.015249	0.083492	0.047598	6664.733887
9595.016152	0.083536	0.047598	6740.166992
9595.017047	0.083580	0.047598	6814.971191
9595.983344	0.888300	0.046993	408.617798
9595.984255	1.313324	0.046993	1605.055908
9595.985149	1.321937	0.046993	2786.867920
9595.986095	1.293889	0.046993	4010.887207
9595.987010	1.265394	0.046993	5168.722656
9595.987940	0.925217	0.046993	6029.174805
9595.988831	0.124786	0.046993	6140.359375
9595.989779	0.083364	0.046993	6219.388672
9595.990715	0.083492	0.046993	6297.537598
9595.991606	0.083434	0.046993	6371.876953
9595.992537	0.083478	0.046993	6449.594727
9595.993443	0.083416	0.046993	6525.169434
9595.994360	0.083430	0.046993	6601.674805
9595.995244	0.083536	0.046993	6675.520996
9595.996183	0.083441	0.046993	6753.872070
9595.997087	0.083375	0.046993	6829.243164
9597.049306	0.873530	0.047175	394.835693
9597.050199	1.311237	0.047175	1565.769897
9597.051142	1.321732	0.047175	2812.163330
9597.052052	1.295021	0.047175	3990.632324
9597.052953	1.266471	0.047175	5131.722656
9597.053850	0.978472	0.047175	6009.411621
9597.054802	0.126021	0.047175	6129.383301
9597.055709	0.083383	0.047175	6205.011230
9597.056616	0.083577	0.047175	6280.815430
9597.057516	0.083566	0.047175	6356.024414
9597.058446	0.083591	0.047175	6433.764160
9597.059356	0.083503	0.047175	6509.752441
9597.060246	0.083544	0.047175	6584.106445
9597.061184	0.083544	0.047175	6662.470215
9597.062084	0.083650	0.047175	6737.754883
9597.062985	0.083573	0.047175	6813.054199
9598.028250	0.864529	0.045898	382.121704
9598.029143	1.310457	0.045898	1552.359375
9598.030103	1.321165	0.045898	2820.677246
9598.031036	1.293552	0.045898	4027.561523
9598.031936	1.265471	0.045898	5166.485352
9598.032869	0.921570	0.045898	6026.310059
9598.033811	0.117968	0.045898	6137.435547
9598.034729	0.083372	0.045898	6213.970703
9598.035624	0.083467	0.045898	6288.673340
9598.036571	0.083507	0.045898	6367.754395
9598.037499	0.083459	0.045898	6445.204590
9598.038398	0.083419	0.045898	6520.198242
9598.039308	0.083503	0.045898	6596.186523
9598.040236	0.083478	0.045898	6673.653809
9598.041159	0.083485	0.045898	6750.710449
9598.042075	0.083529	0.045898	6827.223145
9599.094220	0.864056	0.045185	380.184814
9599.095192	1.313196	0.045185	1656.611206
9599.096110	1.320436	0.045185	2868.771240
9599.097039	1.292889	0.045185	4069.865723
9599.097938	1.264691	0.045185	5206.823242
9599.098914	0.844753	0.045185	6031.302734
9599.099811	0.109655	0.045185	6129.663086
9599.100701	0.083357	0.045185	6203.850586
9599.101628	0.083492	0.045185	6281.248047
9599.102558	0.083463	0.045185	6358.868652
9599.103454	0.083452	0.045185	6433.641602
9599.104345	0.083500	0.045185	6508.040039
9599.105279	0.083489	0.045185	6586.018555
9599.106197	0.083427	0.045185	6662.604004
9599.107107	0.083485	0.045185	6738.575684
9599.107998	0.083463	0.045185	6812.941406
9600.068056	0.875724	0.048564	389.697113
9600.068976	1.312855	0.048564	1597.523926
9600.069881	1.321886	0.048564	2793.830811
9600.070820	1.294453	0.048564	4009.322266
9600.071733	1.265859	0.048564	5165.051758
9600.072645	0.948501	0.048564	6030.084473
9600.073529	0.131895	0.048564	6146.679199
9600.074484	0.083448	0.048564	6226.372559
9600.075382	0.083533	0.048564	6301.384766
9600.076283	0.083507	0.048564	6376.624512
9600.077171	0.083514	0.048564	6450.785156
9600.078100	0.083566	0.048564	6528.417480
9600.079014	0.083507	0.048564	6604.743164
9600.079912	0.083617	0.048564	6679.831055
9600.080839	0.083591	0.048564	6757.320312
9600.081744	0.083613	0.048564	6832.990234
9601.141204	0.864543	0.042836	382.128204
9601.142104	1.310859	0.042836	1561.901611
9601.143061	1.321245	0.042836	2826.333008
9601.143983	1.293999	0.042836	4019.400146
9601.144878	1.265830	0.042836	5152.317871
9601.145810	0.920237	0.042836	6009.978516
9601.146756	0.118887	0.042836	6122.445312
9601.147667	0.083416	0.042836	6198.437012
9601.148558	0.083511	0.042836	6272.845215
9601.149500	0.083540	0.042836	6351.540039
9601.150437	0.083474	0.042836	6429.755371
9601.151340	0.083474	0.042836	6505.132324
9601.152263	0.083500	0.042836	6582.202637
9601.153198	0.083452	0.042836	6660.230469
9601.154108	0.083551	0.042836	6736.261719
9601.154995	0.083544	0.042836	6810.364746
9602.109902	0.861610	0.049853	378.246826
9602.110835	1.310999	0.049853	1601.408447
9602.111777	1.320938	0.049853	2845.731445
9602.112690	1.293805	0.049853	4026.975586
9602.113587	1.265914	0.049853	5162.500977
9602.114561	0.887948	0.049853	6027.362305
9602.115466	0.116459	0.049853	6132.757324
9602.116363	0.083434	0.049853	6207.597656
9602.117251	0.083529	0.049853	6281.771484
9602.118198	0.083591	0.049853	6360.932617
9602.119098	0.083496	0.049853	6436.079102
9602.119991	0.083481	0.049853	6510.627930
9602.120917	0.083544	0.049853	6587.989258
9602.121826	0.083448	0.049853	6663.843750
9602.122734	0.083470	0.049853	6739.634766
9602.123621	0.083427	0.049853	6813.634277
9603.188181	0.866997	0.041076	384.946686
9603.189074	1.310753	0.041076	1555.449341
9603.190051	1.320875	0.041076	2845.944336
9603.190988	1.292959	0.041076	4057.446777
9603.191890	1.264907	0.041076	5198.393066
9603.192826	0.885905	0.041076	6027.599609
9603.193765	0.112310	0.041076	6133.058105
9603.194687	0.083434	0.041076	6209.983887
9603.195579	0.083514	0.041076	6284.478516
9603.196528	0.083525	0.041076	6363.744141
9603.197464	0.083555	0.041076	6441.951172
9603.198365	0.083555	0.041076	6517.233887
9603.199285	0.083445	0.041076	6594.002930
9603.200211	0.083529	0.041076	6671.351074
9603.201138	0.083536	0.041076	6748.789062
9603.202027	0.083518	0.041076	6823.036621
9604.149723	0.884593	0.049604	401.605438
9604.150633	1.313053	0.049604	1596.483643
9604.151582	1.320923	0.049604	2850.039551
9604.152494	1.293651	0.049604	4029.849365
9604.153415	1.265010	0.049604	5194.923340
9604.154314	0.913202	0.049604	6015.891602
9604.155268	0.116832	0.049604	6127.349609
9604.156161	0.083346	0.049604	6201.777344
9604.157049	0.083496	0.049604	6275.921875
9604.157981	0.083500	0.049604	6353.743652
9604.158882	0.083445	0.049604	6428.927246
9604.159796	0.083419	0.049604	6505.172363
9604.160696	0.083452	0.049604	6580.279297
9604.161649	0.083463	0.049604	6659.819824
9604.162563	0.083463	0.049604	6736.104980
9604.163453	0.083489	0.049604	6810.410156
9605.235156	0.871315	0.041346	391.220306
9605.236053	1.311167	0.041346	1567.337036
9605.237002	1.321432	0.041346	2821.375977
9605.237913	1.294384	0.041346	4000.559326
9605.238820	1.266313	0.041346	5149.105469
9605.239721	0.966233	0.041346	6019.681152
9605.240654	0.125676	0.041346	6136.937012
9605.241555	0.083423	0.041346	6212.101074
9605.242456	0.083540	0.041346	6287.370605
9605.243353	0.083602	0.041346	6362.361816
9605.244293	0.083573	0.041346	6440.920410
9605.245198	0.083492	0.041346	6516.480957
9605.246093	0.083518	0.041346	6591.229492
9605.247029	0.083569	0.041346	6669.450195
9605.247935	0.083580	0.041346	6745.173828
9605.248835	0.083522	0.041346	6820.343262
9606.193614	0.858464	0.046929	375.148926
9606.194516	1.310640	0.046929	1557.345825
9606.195487	1.320992	0.046929	2840.029297
9606.196418	1.293252	0.046929	4044.046875
9606.197343	1.264493	0.046929	5213.703125
9606.198250	0.905852	0.046929	6035.311035
9606.199198	0.115360	0.046929	6144.672363
9606.200133	0.083361	0.046929	6222.614746
9606.201028	0.083518	0.046929	6297.363281
9606.201949	0.083470	0.046929	6374.239746
9606.202882	0.083441	0.046929	6452.090332
9606.203816	0.083474	0.046929	6530.055176
9606.204709	0.083492	0.046929	6604.613770
9606.205654	0.083496	0.046929	6683.517578
9606.206588	0.083441	0.046929	6761.451660
9606.207514	0.083470	0.046929	6838.745117
9607.281170	0.930172	0.040854	476.248108
9607.282079	1.316536	0.040854	1672.979004
9607.283008	1.320051	0.040854	2899.306641
9607.283902	1.293014	0.040854	4055.261230
9607.284850	1.263845	0.040854	5253.386719
9607.285766	0.871512	0.040854	6051.692383
9607.286654	0.115177	0.040854	6153.969727
9607.287583	0.083346	0.040854	6231.397949
9607.288485	0.083481	0.040854	6306.698242
9607.289408	0.083467	0.040854	6383.738281
9607.290300	0.083470	0.040854	6458.193848
9607.291236	0.083533	0.040854	6536.380371
9607.292137	0.083496	0.040854	6611.610352
9607.293061	0.083459	0.040854	6688.727051
9607.293949	0.083496	0.040854	6762.871582
9607.294893	0.083492	0.040854	6841.688477
9608.234474	0.895426	0.049511	416.373077
9608.235384	1.313456	0.049511	1611.617676
9608.236278	1.321461	0.049511	2793.003906
9608.237254	1.293332	0.049511	4055.296387
9608.238169	1.264852	0.049511	5212.636230
9608.239071	0.917487	0.049511	6040.208984
9608.240005	0.121274	0.049511	6153.479492
9608.240911	0.083514	0.049511	6229.143555
9608.241816	0.083500	0.049511	6304.710937
9608.242707	0.083514	0.049511	6379.122070
9608.243656	0.083661	0.049511	6458.516113
9608.244563	0.083533	0.049511	6534.280273
9608.245467	0.083503	0.049511	6609.767578
9608.246356	0.083558	0.049511	6684.050781
9608.247291	0.083525	0.049511	6762.146973
9608.248202	0.083459	0.049511	6838.178711
9609.327059	0.864243	0.041624	381.995483
9609.327952	1.310460	0.041624	1552.236450
9609.328909	1.321263	0.041624	2816.685547
9609.329848	1.293644	0.041624	4031.416992
9609.330759	1.265420	0.041624	5184.214844
9609.331690	0.904460	0.041624	6026.267578
9609.332629	0.115031	0.041624	6134.281250
9609.333543	0.083386	0.041624	6210.496094
9609.334441	0.083540	0.041624	6285.515137
9609.335392	0.083514	0.041624	6364.937500
9609.336320	0.083489	0.041624	6442.415039
9609.337233	0.083518	0.041624	6518.666992
9609.338128	0.083573	0.041624	6593.464844
9609.339065	0.083507	0.041624	6671.710937
9609.339997	0.083529	0.041624	6749.560059
9609.340904	0.083529	0.041624	6825.320801
9610.279382	0.865840	0.048653	385.298737
9610.280278	1.311244	0.048653	1560.173218
9610.281243	1.321223	0.048653	2835.153564
9610.282145	1.294343	0.048653	4002.651123
9610.283038	1.266639	0.048653	5133.760254
9610.284011	0.916567	0.048653	6025.580078
9610.284916	0.122501	0.048653	6136.443848
9610.285831	0.083416	0.048653	6212.769043
9610.286727	0.083489	0.048653	6287.575195
9610.287660	0.083518	0.048653	6365.497559
9610.288581	0.083503	0.048653	6442.404297
9610.289505	0.083500	0.048653	6519.558105
9610.290394	0.083478	0.048653	6593.770020
9610.291345	0.083514	0.048653	6673.192383
9610.292249	0.083518	0.048653	6748.692871
9610.293138	0.083536	0.048653	6822.956543
9611.370980	0.876757	0.042502	404.184784
9611.371874	1.312064	0.042502	1577.170166
9611.372790	1.321644	0.042502	2787.796387
9611.373719	1.294750	0.042502	3990.618896
9611.374642	1.265848	0.042502	5158.997070
9611.375549	0.949464	0.042502	6020.161133
9611.376476	0.125702	0.042502	6136.687012
9611.377382	0.083412	0.042502	6212.258301
9611.378284	0.083525	0.042502	6287.598145
9611.379170	0.083588	0.042502	6361.656738
9611.380112	0.083584	0.042502	6440.393066
9611.381018	0.083452	0.042502	6516.000488
9611.381910	0.083496	0.042502	6590.479004
9611.382838	0.083511	0.042502	6667.977051
9611.383764	0.083558	0.042502	6745.352051
9611.384675	0.083478	0.042502	6821.400391
9612.323310	0.890457	0.047295	416.733673
9612.324215	1.313602	0.047295	1605.543701
9612.325155	1.320758	0.047295	2847.056152
9612.326101	1.292772	0.047295	4070.018555
9612.327025	1.264072	0.047295	5238.021484
9612.327925	0.885802	0.047295	6035.243164
9612.328877	0.111815	0.047295	6141.691406
9612.329804	0.083313	0.047295	6218.922363
9612.330704	0.083485	0.047295	6294.059082
9612.331621	0.083514	0.047295	6370.641602
9612.332562	0.083459	0.047295	6449.176758
9612.333481	0.083511	0.047295	6525.923340
9612.334376	0.083489	0.047295	6600.645996
9612.335312	0.083529	0.047295	6678.829102
9612.336240	0.083511	0.047295	6756.327148
9612.337160	0.083555	0.047295	6833.197266
9613.414869	0.866323	0.042337	388.112793
9613.415766	1.310709	0.042337	1563.818848
9613.416658	1.322084	0.042337	2743.117676
9613.417606	1.295050	0.042337	3970.825195
9613.418517	1.266566	0.042337	5124.666992
9613.419412	0.987202	0.042337	6008.212891
9613.420368	0.135927	0.042337	6138.158691
9613.421273	0.083331	0.042337	6213.573730
9613.422197	0.083492	0.042337	6290.720703
9613.423088	0.083474	0.042337	6365.096191
9613.424031	0.083514	0.042337	6443.850098
9613.424932	0.083500	0.042337	6519.083496
9613.425850	0.083474	0.042337	6595.712891
9613.426743	0.083485	0.042337	6670.265137
9613.427691	0.083518	0.042337	6749.440430
9613.428600	0.083536	0.042337	6825.375000
9614.368206	0.863104	0.047183	379.765869
9614.369099	1.310570	0.047183	1550.104858
9614.370060	1.321399	0.047183	2819.969238
9614.370978	1.294391	0.047183	4008.219971
9614.371873	1.266339	0.047183	5141.593750
9614.372823	0.924877	0.047183	6020.226562
9614.373731	0.122791	0.047183	6131.720215
9614.374635	0.083405	0.047183	6207.118164
9614.375524	0.083470	0.047183	6281.323242
9614.376482	0.083500	0.047183	6361.315918
9614.377390	0.083485	0.047183	6437.120605
9614.378290	0.083500	0.047183	6512.270508
9614.379216	0.083529	0.047183	6589.618652
9614.380123	0.083544	0.047183	6665.392578
9614.381030	0.083551	0.047183	6741.173340
9614.381919	0.083533	0.047183	6815.434082
9615.458809	0.884154	0.042119	418.204895
9615.459712	1.313833	0.042119	1604.596191
9615.460605	1.321619	0.042119	2784.801758
9615.461549	1.294028	0.042119	4006.364502
9615.462495	1.264878	0.042119	5202.938965
9615.463405	0.908514	0.042119	6029.687012
9615.464323	0.120919	0.042119	6140.690918
9615.465246	0.083357	0.042119	6217.629395
9615.466168	0.083496	0.042119	6294.612793
9615.467059	0.083496	0.042119	6369.007812
9615.467985	0.083408	0.042119	6446.243652
9615.468919	0.083533	0.042119	6524.263184
9615.469845	0.083445	0.042119	6601.533203
9615.470729	0.083500	0.042119	6675.347168
9615.471656	0.083481	0.042119	6752.734375
9615.472591	0.083470	0.042119	6830.779297
9616.412124	0.878324	0.046280	395.245789
9616.413017	1.311343	0.046280	1566.274902
9616.413982	1.321000	0.046280	2841.039551
9616.414887	1.293959	0.046280	4012.072266
9616.415782	1.266039	0.046280	5145.177246
9616.416734	0.921434	0.046280	6022.382812
9616.417635	0.122571	0.046280	6132.819336
9616.418551	0.083386	0.046280	6209.201172
9616.419446	0.083518	0.046280	6283.949707
9616.420382	0.083566	0.046280	6362.166992
9616.421291	0.083536	0.046280	6438.101562
9616.422210	0.083445	0.046280	6514.787598
9616.423097	0.083529	0.046280	6588.877930
9616.424041	0.083448	0.046280	6667.653320
9616.424935	0.083459	0.046280	6742.266113
9616.425822	0.083489	0.046280	6816.320801
9617.502730	0.884711	0.042276	443.240082
9617.503649	1.316455	0.042276	1653.062256
9617.504550	1.320524	0.042276	2842.854004
9617.505448	1.293860	0.042276	4004.740234
9617.506379	1.265120	0.042276	5182.566406
9617.507306	0.907236	0.042276	6023.574219
9617.508207	0.119608	0.042276	6131.341309
9617.509095	0.083405	0.042276	6205.404297
9617.510044	0.083536	0.042276	6284.680176
9617.510948	0.083405	0.042276	6360.078125
9617.511842	0.083419	0.042276	6434.654785
9617.512781	0.083525	0.042276	6513.084961
9617.513684	0.083408	0.042276	6588.402344
9617.514590	0.083544	0.042276	6664.092773
9617.515479	0.083441	0.042276	6738.271973
9617.516413	0.083566	0.042276	6816.322266
9618.456042	0.896924	0.044415	417.966522
9618.456957	1.314009	0.044415	1620.284668
9618.457857	1.321545	0.044415	2809.675537
9618.458801	1.293450	0.044415	4030.692139
9618.459749	1.264413	0.044415	5229.355469
9618.460653	0.898711	0.044415	6041.790039
9618.461581	0.115939	0.044415	6149.381348
9618.462514	0.083394	0.044415	6227.187500
9618.463429	0.083529	0.044415	6303.616699
9618.464326	0.083547	0.044415	6378.558594
9618.465285	0.083459	0.044415	6458.596191
9618.466223	0.083408	0.044415	6536.833008
9618.467118	0.083485	0.044415	6611.552246
9618.468036	0.083412	0.044415	6688.124512
9618.468965	0.083551	0.044415	6765.743652
9618.469881	0.083529	0.044415	6842.256348
9619.546605	0.877126	0.041946	415.757935
9619.547527	1.314551	0.041946	1627.773682
9619.548458	1.320527	0.041946	2857.184570
9619.549352	1.293970	0.041946	4013.993652
9619.550303	1.264592	0.041946	5216.621094
9619.551229	0.877555	0.041946	6029.236816
9619.552150	0.111918	0.041946	6132.312988
9619.553046	0.083342	0.041946	6206.987793
9619.553994	0.083386	0.041946	6286.038086
9619.554914	0.083441	0.041946	6362.803711
9619.555809	0.083467	0.041946	6437.506348
9619.556730	0.083481	0.041946	6514.392578
9619.557650	0.083441	0.041946	6591.158203
9619.558561	0.083529	0.041946	6667.252930
9619.559447	0.083492	0.041946	6741.227051
9619.560385	0.083459	0.041946	6819.512207
9620.499937	0.887292	0.045765	405.492645
9620.500837	1.312452	0.045765	1586.699707
9620.501728	1.322018	0.045765	2764.617676
9620.502692	1.294380	0.045765	4012.399902
9620.503596	1.266006	0.045765	5156.869141
9620.504509	0.951097	0.045765	6025.221191
9620.505446	0.127764	0.045765	6144.935547
9620.506346	0.083456	0.045765	6220.045898
9620.507246	0.083463	0.045765	6295.162598
9620.508138	0.083474	0.045765	6369.621582
9620.509086	0.083577	0.045765	6448.852051
9620.509982	0.083489	0.045765	6523.658203
9620.510879	0.083503	0.045765	6598.560547
9620.511765	0.083562	0.045765	6672.596680
9620.512716	0.083566	0.045765	6752.067871
9620.513620	0.083518	0.045765	6827.568359
9621.590475	0.870385	0.041245	384.709961
9621.591437	1.315221	0.041245	1649.952515
9621.592370	1.320059	0.041245	2881.567139
9621.593289	1.292827	0.041245	4069.675293
9621.594189	1.264607	0.041245	5207.821289
9621.595152	0.859449	0.041245	6035.471191
9621.596096	0.108325	0.041245	6137.729980
9621.596995	0.083298	0.041245	6212.615234
9621.597905	0.083438	0.041245	6288.543457
9621.598837	0.083470	0.041245	6366.337891
9621.599755	0.083500	0.041245	6442.990723
9621.600644	0.083467	0.041245	6517.192871
9621.601576	0.083503	0.041245	6595.018066
9621.602510	0.083463	0.041245	6672.972656
9621.603407	0.083478	0.041245	6747.852051
9621.604327	0.083485	0.041245	6824.658203
9622.544853	0.867209	0.046981	383.306610
9622.545748	1.310742	0.046981	1556.421021
9622.546725	1.320894	0.046981	2846.934082
9622.547625	1.294193	0.046981	4011.708008
9622.548520	1.266152	0.046981	5144.914062
9622.549472	0.914810	0.046981	6015.812988
9622.550381	0.121000	0.046981	6125.801758
9622.551297	0.083361	0.046981	6202.160156
9622.552193	0.083441	0.046981	6276.923340
9622.553142	0.083540	0.046981	6356.202637
9622.554054	0.083430	0.046981	6432.291016
9622.554947	0.083514	0.046981	6506.869141
9622.555852	0.083522	0.046981	6582.456055
9622.556782	0.083412	0.046981	6660.029297
9622.557677	0.083503	0.046981	6734.764648
9622.558565	0.083511	0.046981	6808.922363
9623.634380	0.856688	0.041172	371.802704
9623.635312	1.313024	0.041172	1595.540771
9623.636230	1.321615	0.041172	2808.783203
9623.637141	1.294904	0.041172	3988.440430
9623.638040	1.266621	0.041172	5127.132812
9623.639011	0.922145	0.041172	6022.535156
9623.639916	0.122417	0.041172	6133.322754
9623.640813	0.083361	0.041172	6208.097168
9623.641746	0.083610	0.041172	6286.104980
9623.642648	0.083613	0.041172	6361.523926
9623.643543	0.083485	0.041172	6436.243164
9623.644427	0.083459	0.041172	6510.021484
9623.645379	0.083555	0.041172	6589.565430
9623.646283	0.083511	0.041172	6665.059082
9623.647183	0.083500	0.041172	6740.208984
9623.648071	0.083500	0.041172	6814.356934
9624.589772	0.869388	0.047888	383.400299
9624.590745	1.315096	0.047888	1662.989014
9624.591665	1.320582	0.047888	2877.924805
9624.592560	1.293724	0.047888	4035.808105
9624.593490	1.264988	0.047888	5212.246582
9624.594440	0.869099	0.047888	6037.890625
9624.595354	0.111321	0.047888	6139.637695
9624.596245	0.083350	0.047888	6213.902344
9624.597183	0.083518	0.047888	6292.242187
9624.598128	0.083536	0.047888	6371.184082
9624.599034	0.083511	0.047888	6446.844727
9624.599953	0.083544	0.047888	6523.621582
9624.600892	0.083518	0.047888	6602.044922
9624.601805	0.083507	0.047888	6678.287109
9624.602693	0.083492	0.047888	6752.428223
9624.603635	0.083529	0.047888	6831.112793
9625.676259	0.883275	0.043666	401.006927
9625.677167	1.312881	0.043666	1593.102783
9625.678065	1.322036	0.043666	2780.291260
9625.678996	1.295112	0.043666	3986.040771
9625.679925	1.265954	0.043666	5162.112305
9625.680845	0.943601	0.043666	6030.225098
9625.681731	0.129679	0.043666	6145.120605
9625.682684	0.083397	0.043666	6224.598145
9625.683585	0.083492	0.043666	6299.824707
9625.684504	0.083478	0.043666	6376.541016
9625.685389	0.083459	0.043666	6450.402832
9625.686335	0.083551	0.043666	6529.441895
9625.687228	0.083467	0.043666	6603.977539
9625.688119	0.083511	0.043666	6678.385742
9625.689055	0.083489	0.043666	6756.531250
9625.689963	0.083467	0.043666	6832.319336
9626.635742	0.874043	0.048029	389.823151
9626.636649	1.311899	0.048029	1579.715942
9626.637546	1.322377	0.048029	2765.887695
9626.638496	1.294687	0.048029	3995.840820
9626.639397	1.266423	0.048029	5136.888184
9626.640313	0.962834	0.048029	6018.844727
9626.641210	0.133323	0.048029	6138.435059
9626.642153	0.083496	0.048029	6217.171875
9626.643065	0.083518	0.048029	6293.340332
9626.643960	0.083602	0.048029	6368.164551
9626.644894	0.083569	0.048029	6446.218262
9626.645786	0.083566	0.048029	6520.758789
9626.646687	0.083448	0.048029	6595.945801
9626.647576	0.083511	0.048029	6670.187012
9626.648517	0.083595	0.048029	6748.850098
9626.649410	0.083536	0.048029	6823.448242
9627.717114	0.902648	0.043279	431.465576
9627.718048	1.316532	0.043279	1661.106445
9627.718955	1.320696	0.043279	2858.977539
9627.719878	1.293219	0.043279	4052.618652
9627.720817	1.264080	0.043279	5239.589355
9627.721766	0.848276	0.043279	6044.603516
9627.722661	0.110544	0.043279	6143.541016
9627.723581	0.083423	0.043279	6220.290039
9627.724519	0.083514	0.043279	6298.626465
9627.725440	0.083551	0.043279	6375.577148
9627.726329	0.083621	0.043279	6449.916016
9627.727279	0.083507	0.043279	6529.247559
9627.728206	0.083474	0.043279	6606.627930
9627.729106	0.083540	0.043279	6681.813965
9627.730023	0.083456	0.043279	6758.342773
9627.730958	0.083566	0.043279	6836.476562
9628.682722	0.873237	0.047021	391.210327
9628.683631	1.312028	0.047021	1583.843384
9628.684524	1.322421	0.047021	2764.765137
9628.685482	1.294951	0.047021	4005.328125
9628.686409	1.265812	0.047021	5178.735840
9628.687308	0.942579	0.047021	6026.114746
9628.688226	0.127372	0.047021	6143.041992
9628.689168	0.083445	0.047021	6221.646973
9628.690071	0.083514	0.047021	6297.060547
9628.690994	0.083500	0.047021	6374.130859
9628.691882	0.083584	0.047021	6448.353516
9628.692842	0.083536	0.047021	6528.548340
9628.693741	0.083485	0.047021	6603.601562
9628.694634	0.083529	0.047021	6678.192871
9628.695572	0.083580	0.047021	6756.591309
9628.696471	0.083544	0.047021	6831.697266
9629.758932	0.872666	0.044584	387.463715
9629.759839	1.311790	0.044584	1577.256836
9629.760730	1.322230	0.044584	2755.364014
9629.761689	1.294596	0.044584	3996.881592
9629.762599	1.266405	0.044584	5149.310059
9629.763504	0.969613	0.044584	6026.809570
9629.764442	0.134418	0.044584	6152.893555
9629.765343	0.083558	0.044584	6228.179687
9629.766239	0.083540	0.044584	6303.031738
9629.767130	0.083613	0.044584	6377.531250
9629.768063	0.083683	0.044584	6455.607422
9629.768974	0.083610	0.044584	6531.775879
9629.769884	0.083562	0.044584	6607.817383
9629.770774	0.083665	0.044584	6682.278809
9629.771717	0.083617	0.044584	6761.129395
9629.772617	0.083518	0.044584	6836.295898
9630.729707	0.872073	0.048439	406.385895
9630.730623	1.313771	0.048439	1609.799927
9630.731521	1.321886	0.048439	2796.853516
9630.732463	1.294409	0.048439	4016.187012
9630.733398	1.265211	0.048439	5199.159668
9630.734327	0.902875	0.048439	6037.930176
9630.735211	0.121750	0.048439	6145.557617
9630.736142	0.083302	0.048439	6223.111816
9630.737080	0.083430	0.048439	6301.369141
9630.737997	0.083514	0.048439	6377.951660
9630.738885	0.083441	0.048439	6452.047363
9630.739824	0.083514	0.048439	6530.467285
9630.740756	0.083503	0.048439	6608.292480
9630.741657	0.083577	0.048439	6683.595215
9630.742575	0.083463	0.048439	6760.214355
9630.743516	0.083514	0.048439	6838.801270
9631.800778	0.859142	0.045422	376.304108
9631.801724	1.314543	0.045422	1619.862183
9631.802649	1.320923	0.045422	2841.715820
9631.803558	1.293981	0.045422	4017.944336
9631.804470	1.265845	0.045422	5172.394531
9631.805421	0.902717	0.045422	6030.878906
9631.806317	0.120081	0.045422	6138.471191
9631.807206	0.083500	0.045422	6212.702637
9631.808132	0.083591	0.045422	6290.108398
9631.809047	0.083533	0.045422	6366.541016
9631.809952	0.083500	0.045422	6442.108398
9631.810843	0.083547	0.045422	6516.549316
9631.811798	0.083573	0.045422	6596.361328
9631.812700	0.083529	0.045422	6671.704590
9631.813595	0.083511	0.045422	6746.446777
9631.814502	0.083544	0.045422	6822.220703
9632.776681	0.874142	0.045752	411.720795
9632.777635	1.315734	0.045752	1666.930786
9632.778560	1.319985	0.045752	2887.917236
9632.779458	1.292860	0.045752	4048.905518
9632.780413	1.263790	0.045752	5255.825195
9632.781354	0.833079	0.045752	6039.751953
9632.782250	0.107578	0.045752	6136.142090
9632.783164	0.083361	0.045752	6212.333496
9632.784088	0.083511	0.045752	6289.497559
9632.785025	0.083496	0.045752	6367.733398
9632.785917	0.083511	0.045752	6442.225098
9632.786836	0.083459	0.045752	6518.924316
9632.787776	0.083496	0.045752	6597.410645
9632.788699	0.083514	0.045752	6674.494629
9632.789587	0.083430	0.045752	6748.580566
9632.790529	0.083456	0.045752	6827.195801
9633.842651	0.869084	0.044314	389.349854
9633.843560	1.312141	0.044314	1582.086060
9633.844458	1.322263	0.044314	2769.478516
9633.845403	1.295054	0.044314	3993.304199
9633.846327	1.265958	0.044314	5163.049805
9633.847256	0.930707	0.044314	6027.676270
9633.848143	0.127668	0.044314	6140.917969
9633.849097	0.083416	0.044314	6220.496582
9633.849994	0.083555	0.044314	6295.445312
9633.850904	0.083599	0.044314	6371.520020
9633.851805	0.083507	0.044314	6446.759766
9633.852760	0.083562	0.044314	6526.561523
9633.853672	0.083507	0.044314	6602.720215
9633.854573	0.083558	0.044314	6678.006348
9633.855511	0.083591	0.044314	6756.415039
9633.856429	0.083573	0.044314	6833.135254
9634.822616	0.866873	0.045116	385.758270
9634.823510	1.310515	0.045116	1557.358765
9634.824468	1.321443	0.045116	2823.301025
9634.825383	1.294270	0.045116	4007.558105
9634.826282	1.266398	0.045116	5146.049805
9634.827225	0.923269	0.045116	6016.692383
9634.828132	0.123186	0.045116	6128.421875
9634.829041	0.083412	0.045116	6204.243164
9634.829941	0.083478	0.045116	6279.373047
9634.830874	0.083562	0.045116	6357.336426
9634.831777	0.083518	0.045116	6432.753418
9634.832682	0.083496	0.045116	6508.317383
9634.833571	0.083599	0.045116	6582.636719
9634.834531	0.083646	0.045116	6662.937012
9634.835435	0.083558	0.045116	6738.473633
9634.836330	0.083584	0.045116	6813.281250
9635.885557	0.878639	0.046671	424.382599
9635.886489	1.316287	0.046671	1651.161743
9635.887420	1.320158	0.046671	2880.228516
9635.888335	1.292655	0.046671	4063.007812
9635.889287	1.263516	0.046671	5265.874512
9635.890226	0.822308	0.046671	6038.021973
9635.891135	0.106000	0.046671	6134.375977
9635.892042	0.083427	0.046671	6210.043945
9635.892978	0.083573	0.046671	6288.268066
9635.893902	0.083518	0.046671	6365.438965
9635.894798	0.083566	0.046671	6440.313965
9635.895713	0.083577	0.046671	6516.786621
9635.896651	0.083489	0.046671	6595.099121
9635.897585	0.083514	0.046671	6673.101562
9635.898481	0.083613	0.046671	6748.019043
9635.899395	0.083485	0.046671	6824.324219
9636.866505	0.862416	0.044866	379.462921
9636.867453	1.311112	0.044866	1622.397095
9636.868367	1.321091	0.044866	2829.874512
9636.869276	1.294512	0.044866	4006.585449
9636.870165	1.266661	0.044866	5132.647461
9636.871120	0.928887	0.044866	6019.734375
9636.872034	0.122593	0.044866	6131.784180
9636.872937	0.083419	0.044866	6207.111816
9636.873826	0.083507	0.044866	6281.349609
9636.874769	0.083558	0.044866	6360.145020
9636.875672	0.083500	0.044866	6435.545410
9636.876559	0.083503	0.044866	6509.612793
9636.877495	0.083566	0.044866	6587.830078
9636.878404	0.083518	0.044866	6663.748047
9636.879307	0.083540	0.044866	6739.184570
9636.880191	0.083481	0.044866	6812.981934
9637.930504	0.914381	0.044363	457.190552
9637.931422	1.317067	0.044363	1666.257690
9637.932328	1.320469	0.044363	2862.602539
9637.933221	1.293710	0.044363	4017.885254
9637.934182	1.264501	0.044363	5233.070312
9637.935104	0.882268	0.044363	6046.521484
9637.935997	0.117312	0.044363	6151.281250
9637.936926	0.083423	0.044363	6228.781250
9637.937831	0.083544	0.044363	6304.388184
9637.938742	0.083434	0.044363	6380.396484
9637.939640	0.083485	0.044363	6455.366211
9637.940568	0.083588	0.044363	6532.935547
9637.941473	0.083584	0.044363	6608.579102
9637.942368	0.083544	0.044363	6683.350586
9637.943257	0.083566	0.044363	6757.640625
9637.944203	0.083632	0.044363	6836.756348
9638.908366	0.865931	0.044218	381.875732
9638.909340	1.314664	0.044218	1662.358765
9638.910264	1.320289	0.044218	2882.306152
9638.911164	1.293325	0.044218	4046.298828
9638.912086	1.264691	0.044218	5212.343750
9638.913034	0.867623	0.044218	6034.850586
9638.913951	0.111167	0.044218	6136.790527
9638.914848	0.083394	0.044218	6211.594727
9638.915792	0.083481	0.044218	6290.401367
9638.916722	0.083467	0.044218	6368.025391
9638.917628	0.083500	0.044218	6443.676270
9638.918532	0.083507	0.044218	6519.166504
9638.919466	0.083562	0.044218	6597.213379
9638.920403	0.083430	0.044218	6675.387695
9638.921299	0.083478	0.044218	6750.183594
9638.922222	0.083529	0.044218	6827.280762
9639.975384	0.872322	0.046490	395.161774
9639.976323	1.314858	0.046490	1629.813843
9639.977217	1.321399	0.046490	2811.144531
9639.978176	1.293457	0.046490	4051.569824
9639.979074	1.265270	0.046490	5187.782227
9639.979977	0.940345	0.046490	6036.914062
9639.980916	0.127405	0.046490	6156.547363
9639.981831	0.083500	0.046490	6232.949707
9639.982735	0.083518	0.046490	6308.450195
9639.983627	0.083617	0.046490	6383.036621
9639.984566	0.083606	0.046490	6461.542480
9639.985476	0.083522	0.046490	6537.547363
9639.986400	0.083584	0.046490	6614.778809
9639.987288	0.083566	0.046490	6688.985352
9639.988243	0.083584	0.046490	6768.808105
9639.989141	0.083588	0.046490	6843.869629
9640.952271	0.865305	0.043142	384.195496
9640.953203	1.311101	0.043142	1606.141602
9640.954136	1.320989	0.043142	2838.624023
9640.955046	1.293739	0.043142	4015.926514
9640.955950	1.265647	0.043142	5160.071289
9640.956895	0.921182	0.043142	6030.587891
9640.957798	0.121948	0.043142	6140.707031
9640.958701	0.083379	0.043142	6215.998047
9640.959587	0.083445	0.043142	6289.930176
9640.960536	0.083683	0.043142	6369.345215
9640.961440	0.083533	0.043142	6444.858887
9640.962332	0.083533	0.043142	6519.370117
9640.963267	0.083500	0.043142	6597.442383
9640.964169	0.083525	0.043142	6672.782227
9640.965076	0.083492	0.043142	6748.509766
9640.965977	0.083503	0.043142	6823.746582
9642.021324	0.866810	0.048544	380.529724
9642.022295	1.315829	0.048544	1658.199707
9642.023222	1.320066	0.048544	2881.900879
9642.024148	1.292739	0.048544	4078.977539
9642.025041	1.264706	0.048544	5208.359863
9642.026001	0.853645	0.048544	6027.858887
9642.026945	0.108237	0.048544	6130.034668
9642.027838	0.083470	0.048544	6204.573730
9642.028755	0.083448	0.048544	6281.096191
9642.029686	0.083492	0.048544	6358.827637
9642.030599	0.083544	0.048544	6435.103027
9642.031497	0.083562	0.048544	6510.141602
9642.032443	0.083463	0.048544	6589.097656
9642.033379	0.083496	0.048544	6667.250000
9642.034278	0.083580	0.048544	6742.388672
9642.035191	0.083562	0.048544	6818.680664
9642.993101	0.867598	0.046659	383.478180
9642.994072	1.316111	0.046659	1661.421753
9642.994974	1.320886	0.046659	2852.861084
9642.995869	1.294358	0.046659	4011.311523
9642.996800	1.265654	0.046659	5189.635742
9642.997746	0.893507	0.046659	6034.893555
9642.998650	0.116620	0.046659	6140.317871
9642.999541	0.083448	0.046659	6214.670410
9643.000466	0.083536	0.046659	6291.941406
9643.001375	0.083452	0.046659	6367.799316
9643.002271	0.083463	0.046659	6442.582520
9643.003156	0.083533	0.046659	6516.508789
9643.004101	0.083525	0.046659	6595.440430
9643.004994	0.083613	0.046659	6670.106934
9643.005886	0.083610	0.046659	6744.686523
9643.006817	0.083555	0.046659	6822.476074
9644.067299	0.878752	0.044460	402.468597
9644.068201	1.312548	0.044460	1586.386475
9644.069133	1.321483	0.044460	2818.008789
9644.070084	1.293560	0.044460	4048.184082
9644.071006	1.264838	0.044460	5214.364258
9644.071907	0.911642	0.044460	6035.753418
9644.072854	0.117070	0.044460	6146.619141
9644.073803	0.083386	0.044460	6225.752441
9644.074694	0.083595	0.044460	6300.235352
9644.075620	0.083514	0.044460	6377.569824
9644.076552	0.083478	0.044460	6455.371094
9644.077468	0.083577	0.044460	6531.927246
9644.078359	0.083430	0.044460	6606.263672
9644.079298	0.083558	0.044460	6684.725098
9644.080239	0.083558	0.044460	6763.353516
9644.081142	0.083599	0.044460	6838.843262
9645.034972	0.867037	0.043948	389.299774
9645.035870	1.311295	0.043948	1566.842896
9645.036763	1.322175	0.043948	2747.545410
9645.037719	1.294713	0.043948	3985.291016
9645.038632	1.266313	0.043948	5141.435059
9645.039534	0.973608	0.043948	6019.629883
9645.040469	0.135136	0.043948	6145.981445
9645.041381	0.083364	0.043948	6222.009766
9645.042303	0.083518	0.043948	6299.013184
9645.043192	0.083606	0.043948	6373.338867
9645.044134	0.083540	0.043948	6452.033691
9645.045037	0.083470	0.043948	6527.407715
9645.045958	0.083533	0.043948	6604.341309
9645.046847	0.083540	0.043948	6678.608398
9645.047787	0.083602	0.043948	6757.194336
9645.048687	0.083518	0.043948	6832.360352
9646.114280	0.894177	0.045801	420.263306
9646.115185	1.313628	0.045801	1609.096558
9646.116127	1.321154	0.045801	2853.623047
9646.117043	1.293724	0.045801	4038.674561
9646.117947	1.265544	0.045801	5182.726562
9646.118850	0.945696	0.045801	6036.689941
9646.119797	0.120374	0.045801	6150.683594
9646.120687	0.083375	0.045801	6224.887695
9646.121592	0.083434	0.045801	6300.395508
9646.122481	0.083566	0.045801	6374.685547
9646.123424	0.083577	0.045801	6453.498535
9646.124332	0.083427	0.045801	6529.250000
9646.125233	0.083467	0.045801	6604.453613
9646.126168	0.083566	0.045801	6682.587402
9646.127068	0.083613	0.045801	6757.839355
9646.127963	0.083602	0.045801	6832.663574
9647.076819	0.861079	0.045769	379.735870
9647.077715	1.310548	0.045769	1553.987061
9647.078676	1.321102	0.045769	2823.566406
9647.079605	1.293534	0.045769	4025.259277
9647.080511	1.265284	0.045769	5171.606934
9647.081443	0.917703	0.045769	6026.905762
9647.082390	0.117052	0.045769	6137.753906
9647.083313	0.083434	0.045769	6214.763184
9647.084207	0.083569	0.045769	6289.474121
9647.085167	0.083496	0.045769	6369.630371
9647.086106	0.083485	0.045769	6448.022949
9647.087031	0.083511	0.045769	6525.270508
9647.087917	0.083500	0.045769	6599.251465
9647.088865	0.083529	0.045769	6678.437012
9647.089788	0.083503	0.045769	6755.510742
9647.090691	0.083566	0.045769	6830.970703
9648.160250	0.895712	0.044044	438.002991
9648.161171	1.315862	0.044044	1649.911621
9648.162098	1.320377	0.044044	2873.901367
9648.162991	1.293684	0.044044	4029.161133
9648.163964	1.263794	0.044044	5258.832520
9648.164873	0.868195	0.044044	6048.021484
9648.165763	0.114741	0.044044	6150.141113
9648.166687	0.083405	0.044044	6227.207031
9648.167613	0.083427	0.044044	6304.459961
9648.168503	0.083536	0.044044	6378.807129
9648.169401	0.083481	0.044044	6453.773437
9648.170334	0.083533	0.044044	6531.709473
9648.171239	0.083467	0.044044	6607.247070
9648.172159	0.083551	0.044044	6684.114258
9648.173049	0.083503	0.044044	6758.432129
9648.174007	0.083470	0.044044	6838.396973
9649.118671	0.867268	0.046308	385.067017
9649.119616	1.314858	0.046308	1627.608276
9649.120541	1.320787	0.046308	2849.336426
9649.121444	1.294043	0.046308	4017.857178
9649.122353	1.265420	0.046308	5168.124023
9649.123309	0.904666	0.046308	6032.984375
9649.124219	0.117708	0.046308	6140.098145
9649.125117	0.083416	0.046308	6215.005371
9649.126064	0.083540	0.046308	6294.117676
9649.126968	0.083610	0.046308	6369.700684
9649.127867	0.083551	0.046308	6444.812988
9649.128750	0.083540	0.046308	6518.578613
9649.129689	0.083606	0.046308	6597.084473
9649.130595	0.083558	0.046308	6672.788574
9649.131488	0.083536	0.046308	6747.386719
9649.132415	0.083566	0.046308	6824.852051
9650.206164	0.862020	0.043420	380.150940
9650.207061	1.310453	0.043420	1555.627197
9650.208032	1.321154	0.043420	2838.467285
9650.208953	1.293790	0.043420	4030.048096
9650.209849	1.265793	0.043420	5164.199219
9650.210795	0.913173	0.043420	6028.060547
9650.211740	0.116415	0.043420	6138.072754
9650.212649	0.083394	0.043420	6213.877441
9650.213544	0.083584	0.043420	6288.685059
9650.214472	0.083470	0.043420	6366.145508
9650.215413	0.083584	0.043420	6444.797852
9650.216340	0.083679	0.043420	6522.368652
9650.217228	0.083544	0.043420	6596.555664
9650.218179	0.083529	0.043420	6675.991699
9650.219117	0.083555	0.043420	6754.366211
9650.220019	0.083551	0.043420	6829.729004
9651.163606	0.872351	0.044717	387.323883
9651.164517	1.312379	0.044717	1582.901367
9651.165411	1.322421	0.044717	2765.145508
9651.166371	1.294413	0.044717	4007.781738
9651.167301	1.265387	0.044717	5184.591797
9651.168215	0.929857	0.044717	6034.481445
9651.169100	0.126661	0.044717	6146.576660
9651.170040	0.083448	0.044717	6225.018066
9651.170937	0.083558	0.044717	6299.969727
9651.171828	0.083544	0.044717	6374.407227
9651.172769	0.083525	0.044717	6453.004395
9651.173673	0.083540	0.044717	6528.524414
9651.174575	0.083529	0.044717	6603.867676
9651.175464	0.083478	0.044717	6678.079590
9651.176404	0.083632	0.044717	6756.693359
9651.177315	0.083459	0.044717	6832.725098
9652.250077	0.870754	0.041068	388.356476
9652.250973	1.311046	0.041068	1563.053711
9652.251944	1.320985	0.041068	2845.730225
9652.252872	1.293446	0.041068	4046.048340
9652.253768	1.265420	0.041068	5179.864746
9652.254713	0.898784	0.041068	6029.215820
9652.255636	0.113796	0.041068	6134.250000
9652.256574	0.083379	0.041068	6212.459473
9652.257470	0.083566	0.041068	6287.334473
9652.258381	0.083507	0.041068	6363.409180
9652.259322	0.083529	0.041068	6442.010254
9652.260235	0.083580	0.041068	6518.319336
9652.261124	0.083566	0.041068	6592.609375
9652.262071	0.083533	0.041068	6671.714844
9652.263015	0.083452	0.041068	6750.493652
9652.263919	0.083547	0.041068	6826.020508
9653.205448	0.855769	0.044895	372.259521
9653.206345	1.310057	0.044895	1547.380859
9653.207319	1.320798	0.044895	2833.838379
9653.208246	1.293479	0.044895	4032.893555
9653.209161	1.264900	0.044895	5190.276855
9653.210117	0.876775	0.044895	6028.473633
9653.211037	0.113152	0.044895	6132.573242
9653.211954	0.083375	0.044895	6209.028320
9653.212844	0.083569	0.044895	6283.405273
9653.213784	0.083507	0.044895	6361.901855
9653.214680	0.083489	0.044895	6436.708008
9653.215596	0.083540	0.044895	6513.230469
9653.216494	0.083551	0.044895	6588.259277
9653.217450	0.083401	0.044895	6667.990723
9653.218362	0.083470	0.044895	6744.115723
9653.219256	0.083566	0.044895	6818.823242
9654.293990	0.884154	0.042449	415.552429
9654.294893	1.313372	0.042449	1601.526855
9654.295855	1.320765	0.042449	2872.103027
9654.296770	1.293120	0.042449	4055.307861
9654.297675	1.264959	0.042449	5200.095215
9654.298573	0.923346	0.042449	6029.259766
9654.299515	0.115206	0.042449	6137.784180
9654.300433	0.083342	0.042449	6214.292480
9654.301336	0.083529	0.042449	6289.719238
9654.302232	0.083573	0.042449	6364.600586
9654.303178	0.083632	0.042449	6443.716309
9654.304086	0.083555	0.042449	6519.583984
9654.304973	0.083628	0.042449	6593.761719
9654.305920	0.083566	0.042449	6672.898437
9654.306824	0.083657	0.042449	6748.524414
9654.307732	0.083547	0.042449	6824.385254
9655.250373	0.856132	0.046707	370.704987
9655.251312	1.312775	0.046707	1603.400391
9655.252264	1.320421	0.046707	2860.441406
9655.253191	1.293153	0.046707	4059.194336
9655.254089	1.264856	0.046707	5195.035156
9655.255048	0.866869	0.046707	6026.362305
9655.255978	0.110984	0.046707	6129.577148
9655.256876	0.083419	0.046707	6204.487793
9655.257807	0.083489	0.046707	6282.215820
9655.258742	0.083485	0.046707	6360.274414
9655.259659	0.083544	0.046707	6436.883789
9655.260554	0.083584	0.046707	6511.691406
9655.261490	0.083492	0.046707	6589.840332
9655.262429	0.083470	0.046707	6668.219238
9655.263329	0.083522	0.046707	6743.388672
9655.264242	0.083496	0.046707	6819.620605
9656.338905	0.870769	0.042115	387.492218
9656.339804	1.311204	0.042115	1566.264282
9656.340766	1.320938	0.042115	2837.006348
9656.341689	1.293673	0.042115	4031.066406
9656.342586	1.265790	0.042115	5166.479980
9656.343533	0.896990	0.042115	6015.929199
9656.344471	0.114697	0.042115	6123.515137
9656.345387	0.083463	0.042115	6199.967285
9656.346287	0.083503	0.042115	6275.120117
9656.347223	0.083481	0.042115	6353.258789
9656.348162	0.083441	0.042115	6431.609863
9656.349062	0.083555	0.042115	6506.809082
9656.349986	0.083459	0.042115	6583.925781
9656.350923	0.083514	0.042115	6662.178711
9656.351835	0.083533	0.042115	6738.360352
9656.352724	0.083481	0.042115	6812.575195
9657.295353	0.873926	0.044516	422.980103
9657.296276	1.315983	0.044516	1637.632080
9657.297189	1.320743	0.044516	2843.470703
9657.298083	1.293951	0.044516	4000.263184
9657.299029	1.264922	0.044516	5196.879395
9657.299952	0.904680	0.044516	6031.899414
9657.300854	0.120139	0.044516	6140.265137
9657.301741	0.083364	0.044516	6214.208984
9657.302667	0.083503	0.044516	6291.533203
9657.303575	0.083416	0.044516	6367.274414
9657.304465	0.083536	0.044516	6441.621582
9657.305390	0.083536	0.044516	6518.892578
9657.306300	0.083540	0.044516	6594.914062
9657.307208	0.083511	0.044516	6670.741699
9657.308096	0.083562	0.044516	6744.944824
9657.309054	0.083558	0.044516	6824.993652
9658.380746	0.856296	0.045749	373.345215
9658.381692	1.311877	0.045749	1614.381226
9658.382614	1.321183	0.045749	2832.511719
9658.383515	1.294340	0.045749	3998.711670
9658.384407	1.266350	0.045749	5128.295898
9658.385363	0.931611	0.045749	6018.916504
9658.386273	0.123585	0.045749	6131.378906
9658.387166	0.083309	0.045749	6205.773926
9658.388073	0.083467	0.045749	6281.478516
9658.388997	0.083463	0.045749	6358.598633
9658.389901	0.083412	0.045749	6434.002930
9658.390798	0.083470	0.045749	6508.875977
9658.391730	0.083544	0.045749	6586.738770
9658.392634	0.083522	0.045749	6662.242187
9658.393526	0.083478	0.045749	6736.704590
9658.394414	0.083511	0.045749	6810.862305
9659.337170	0.862537	0.045958	386.416412
9659.338109	1.314511	0.045958	1620.741821
9659.339011	1.321582	0.045958	2812.808838
9659.339934	1.294644	0.045958	4007.764648
9659.340882	1.265230	0.045958	5207.202148
9659.341801	0.904662	0.045958	6038.586426
9659.342688	0.121776	0.045958	6146.602051
9659.343617	0.083335	0.045958	6224.020020
9659.344542	0.083448	0.045958	6301.209961
9659.345457	0.083566	0.045958	6377.672363
9659.346356	0.083452	0.045958	6452.695801
9659.347300	0.083481	0.045958	6531.502441
9659.348239	0.083547	0.045958	6609.953613
9659.349144	0.083492	0.045958	6685.514160
9659.350061	0.083489	0.045958	6762.073242
9659.350998	0.083496	0.045958	6840.309082
9660.426711	0.865649	0.041998	387.810944
9660.427609	1.310988	0.041998	1565.077759
9660.428561	1.321670	0.041998	2823.307617
9660.429480	1.294263	0.041998	4012.735107
9660.430380	1.266130	0.041998	5152.252441
9660.431287	0.955620	0.041998	6019.000000
9660.432222	0.122871	0.041998	6133.884277
9660.433134	0.083372	0.041998	6209.918945
9660.434030	0.083536	0.041998	6284.767578
9660.434921	0.083562	0.041998	6359.221191
9660.435876	0.083536	0.041998	6438.998535
9660.436777	0.083558	0.041998	6514.284668
9660.437668	0.083511	0.041998	6588.692871
9660.438602	0.083635	0.041998	6666.808105
9660.439513	0.083525	0.041998	6742.899902
9660.440409	0.083522	0.041998	6817.735352
9661.383119	0.863331	0.045599	383.319092
9661.384084	1.314459	0.045599	1651.772217
9661.385028	1.320044	0.045599	2897.893555
9661.385953	1.292194	0.045599	4093.172607
9661.386856	1.264017	0.045599	5234.580078
9661.387812	0.843765	0.045599	6041.219238
9661.388716	0.109625	0.045599	6140.320312
9661.389625	0.083416	0.045599	6216.145020
9661.390514	0.083533	0.045599	6290.405762
9661.391449	0.083599	0.045599	6368.570312
9661.392357	0.083500	0.045599	6444.388184
9661.393258	0.083518	0.045599	6519.638184
9661.394150	0.083470	0.045599	6594.093750
9661.395101	0.083503	0.045599	6673.505371
9661.396009	0.083544	0.045599	6749.363281
9661.396909	0.083529	0.045599	6824.539551
9662.468568	0.876823	0.044206	395.446960
9662.469552	1.317393	0.044206	1691.761230
9662.470454	1.319912	0.044206	2882.321777
9662.471383	1.292607	0.044206	4083.154053
9662.472278	1.264233	0.044206	5214.643066
9662.473221	0.860471	0.044206	6026.067383
9662.474141	0.110526	0.044206	6127.751465
9662.475039	0.083412	0.044206	6202.655273
9662.475981	0.083555	0.044206	6281.363770
9662.476882	0.083525	0.044206	6356.620117
9662.477805	0.083540	0.044206	6433.727539
9662.478692	0.083632	0.044206	6507.908691
9662.479643	0.083584	0.044206	6587.396973
9662.480559	0.083522	0.044206	6663.902832
9662.481450	0.083584	0.044206	6738.375977
9662.482353	0.083555	0.044206	6813.825684
9663.428098	0.920563	0.045297	451.075745
9663.429010	1.315814	0.045297	1651.098145
9663.429924	1.320725	0.045297	2858.240723
9663.430819	1.293787	0.045297	4016.179687
9663.431767	1.264614	0.045297	5215.034180
9663.432694	0.898088	0.045297	6047.562012
9663.433585	0.119667	0.045297	6154.185059
9663.434526	0.083481	0.045297	6232.741211
9663.435431	0.083518	0.045297	6308.325195
9663.436329	0.083525	0.045297	6383.331055
9663.437218	0.083533	0.045297	6457.591797
9663.438164	0.083540	0.045297	6536.620605
9663.439068	0.083529	0.045297	6612.130859
9663.439973	0.083496	0.045297	6687.694824
9663.440869	0.083522	0.045297	6762.530273
9663.441808	0.083551	0.045297	6840.984863
9664.513534	0.879818	0.044008	420.553040
9664.514462	1.315474	0.044008	1641.312500
9664.515360	1.321245	0.044008	2827.790527
9664.516283	1.294197	0.044008	4022.333984
9664.517219	1.264680	0.044008	5206.074707
9664.518153	0.872856	0.044008	6021.322754
9664.519055	0.114705	0.044008	6124.786133
9664.519979	0.083339	0.044008	6201.791016
9664.520919	0.083555	0.044008	6280.332520
9664.521831	0.083511	0.044008	6356.494141
9664.522715	0.083533	0.044008	6430.336914
9664.523664	0.083474	0.044008	6509.553711
9664.524598	0.083489	0.044008	6587.532227
9664.525497	0.083555	0.044008	6662.647949
9664.526424	0.083518	0.044008	6740.069336
9664.527352	0.083485	0.044008	6817.543457
9665.472979	0.867667	0.045712	386.979584
9665.473884	1.311819	0.045712	1574.175659
9665.474777	1.322124	0.045712	2754.832520
9665.475753	1.293981	0.045712	4017.757812
9665.476663	1.265764	0.045712	5169.603027
9665.477567	0.951962	0.045712	6030.176270
9665.478513	0.127588	0.045712	6150.874512
9665.479434	0.083324	0.045712	6227.615723
9665.480358	0.083452	0.045712	6304.725586
9665.481248	0.083588	0.045712	6379.118652
9665.482187	0.083507	0.045712	6457.531738
9665.483098	0.083514	0.045712	6533.613281
9665.483991	0.083507	0.045712	6608.185059
9665.484907	0.083591	0.045712	6684.754883
9665.485836	0.083485	0.045712	6762.312500
9665.486741	0.083492	0.045712	6837.873047
9666.554387	0.932238	0.046848	477.305634
9666.555304	1.317059	0.046848	1685.049072
9666.556210	1.320553	0.046848	2881.470215
9666.557102	1.293263	0.046848	4035.060547
9666.558044	1.264515	0.046848	5226.233887
9666.558970	0.889482	0.046848	6049.894531
9666.559867	0.116986	0.046848	6154.831055
9666.560806	0.083441	0.046848	6233.182129
9666.561709	0.083485	0.046848	6308.569336
9666.562612	0.083503	0.046848	6383.973145
9666.563503	0.083456	0.046848	6458.332031
9666.564438	0.083624	0.046848	6536.520508
9666.565341	0.083544	0.046848	6611.960449
9666.566243	0.083456	0.046848	6687.237793
9666.567127	0.083478	0.046848	6761.032227
9666.568064	0.083547	0.046848	6839.315918
9667.518915	0.867371	0.043118	377.306213
9667.519894	1.316122	0.043118	1665.789551
9667.520835	1.319714	0.043118	2907.640625
9667.521742	1.292596	0.043118	4080.025635
9667.522660	1.264193	0.043118	5240.554687
9667.523606	0.848104	0.043118	6042.861328
9667.524537	0.107922	0.043118	6143.336914
9667.525432	0.083416	0.043118	6217.993652
9667.526358	0.083427	0.043118	6295.246582
9667.527291	0.083478	0.043118	6373.131348
9667.528192	0.083485	0.043118	6448.351562
9667.529089	0.083478	0.043118	6523.230957
9667.530028	0.083427	0.043118	6601.568359
9667.530968	0.083525	0.043118	6680.082031
9667.531873	0.083448	0.043118	6755.603027
9667.532789	0.083485	0.043118	6832.075195
9668.596176	0.858182	0.048605	381.032959
9668.597075	1.310702	0.048605	1559.354004
9668.598019	1.321758	0.048605	2807.093262
9668.598934	1.294446	0.048605	3991.511230
9668.599844	1.266288	0.048605	5143.833008
9668.600746	0.969474	0.048605	6018.298340
9668.601677	0.129078	0.048605	6138.470215
9668.602591	0.083379	0.048605	6214.678711
9668.603512	0.083492	0.048605	6291.575195
9668.604400	0.083496	0.048605	6365.719727
9668.605344	0.083547	0.048605	6444.588379
9668.606242	0.083416	0.048605	6519.495605
9668.607127	0.083507	0.048605	6593.399414
9668.608063	0.083555	0.048605	6671.606445
9668.608985	0.083485	0.048605	6748.579590
9668.609885	0.083459	0.048605	6823.693359
9669.564879	0.869681	0.043666	387.008240
9669.565782	1.311372	0.043666	1571.177246
9669.566677	1.322216	0.043666	2754.560059
9669.567650	1.294050	0.043666	4013.670898
9669.568565	1.265815	0.043666	5171.892090
9669.569471	0.948490	0.043666	6031.224121
9669.570396	0.129712	0.043666	6151.207520
9669.571306	0.083372	0.043666	6227.075684
9669.572205	0.083492	0.043666	6302.135254
9669.573108	0.083503	0.043666	6377.539062
9669.574040	0.083580	0.043666	6455.436035
9669.574944	0.083566	0.043666	6530.979492
9669.575845	0.083500	0.043666	6606.212891
9669.576734	0.083558	0.043666	6680.496094
9669.577679	0.083617	0.043666	6759.514160
9669.578585	0.083507	0.043666	6835.171387
9670.638026	0.858805	0.047263	373.580109
9670.638970	1.312507	0.047263	1612.586914
9670.639908	1.320773	0.047263	2851.471680
9670.640823	1.293494	0.047263	4035.018311
9670.641723	1.265347	0.047263	5173.830078
9670.642689	0.877595	0.047263	6021.586914
9670.643630	0.111387	0.047263	6126.401855
9670.644530	0.083416	0.047263	6201.475586
9670.645449	0.083470	0.047263	6278.185059
9670.646388	0.083500	0.047263	6356.591309
9670.647308	0.083448	0.047263	6433.363770
9670.648198	0.083456	0.047263	6507.639648
9670.649149	0.083430	0.047263	6586.981934
9670.650085	0.083434	0.047263	6665.076172
9670.650978	0.083522	0.047263	6739.661133
9670.651897	0.083445	0.047263	6816.347168
9671.611859	0.868037	0.042864	386.276520
9671.612759	1.311595	0.042864	1566.712402
9671.613708	1.321414	0.042864	2820.733887
9671.614631	1.294021	0.042864	4015.115234
9671.615543	1.265830	0.042864	5169.552246
9671.616449	0.945425	0.042864	6026.106934
9671.617394	0.119894	0.042864	6139.406738
9671.618300	0.083375	0.042864	6214.944824
9671.619192	0.083529	0.042864	6289.452637
9671.620095	0.083481	0.042864	6364.836426
9671.621018	0.083599	0.042864	6441.998047
9671.621929	0.083445	0.042864	6518.016113
9671.622828	0.083445	0.042864	6593.033203
9671.623768	0.083580	0.042864	6671.598633
9671.624678	0.083430	0.042864	6747.520020
9671.625579	0.083489	0.042864	6822.743164
9672.679937	0.903779	0.046909	432.006500
9672.680844	1.314514	0.046909	1624.270874
9672.681737	1.321802	0.046909	2804.639648
9672.682665	1.293992	0.046909	4005.463867
9672.683607	1.264713	0.046909	5196.823730
9672.684533	0.905980	0.046909	6035.761230
9672.685424	0.120487	0.046909	6143.115234
9672.686377	0.083386	0.046909	6222.582520
9672.687312	0.083492	0.046909	6300.647949
9672.688225	0.083503	0.046909	6376.886719
9672.689117	0.083536	0.046909	6451.401367
9672.690070	0.083507	0.046909	6530.983398
9672.691016	0.083467	0.046909	6609.942871
9672.691904	0.083606	0.046909	6684.185059
9672.692820	0.083514	0.046909	6760.684082
9672.693750	0.083492	0.046909	6838.332031
9673.657808	0.879177	0.041688	392.113037
9673.658782	1.316807	0.041688	1674.682739
9673.659711	1.319744	0.041688	2900.724609
9673.660627	1.292256	0.041688	4084.431152
9673.661585	1.262845	0.041688	5294.237305
9673.662504	0.825110	0.041688	6052.513184
9673.663432	0.104114	0.041688	6149.130859
9673.664317	0.083361	0.041688	6222.904785
9673.665272	0.083489	0.041688	6302.636719
9673.666195	0.083459	0.041688	6379.669922
9673.667084	0.083503	0.041688	6453.904297
9673.668018	0.083503	0.041688	6531.896484
9673.668925	0.083489	0.041688	6607.620605
9673.669838	0.083481	0.041688	6683.839355
9673.670727	0.083518	0.041688	6758.086914
9673.671668	0.083427	0.041688	6836.591309
9674.721758	0.883934	0.050413	403.957977
9674.722658	1.311995	0.050413	1584.753052
9674.723607	1.320883	0.050413	2838.270508
9674.724519	1.294050	0.050413	4018.444336
9674.725424	1.265954	0.050413	5164.133301
9674.726325	0.931124	0.050413	6003.076172
9674.727288	0.117169	0.050413	6115.910156
9674.728197	0.083419	0.050413	6191.738281
9674.729087	0.083580	0.050413	6266.125000
9674.730034	0.083621	0.050413	6345.313477
9674.730931	0.083639	0.050413	6420.337402
9674.731826	0.083481	0.050413	6495.053223
9674.732712	0.083489	0.050413	6569.024414
9674.733643	0.083551	0.050413	6646.810547
9674.734545	0.083518	0.050413	6722.144043
9674.735444	0.083496	0.050413	6797.207031
9675.703761	0.862119	0.042421	378.470306
9675.704663	1.310742	0.042421	1560.759888
9675.705619	1.321351	0.042421	2823.971680
9675.706551	1.293699	0.042421	4029.698975
9675.707450	1.265684	0.042421	5167.548828
9675.708385	0.926224	0.042421	6033.568359
9675.709325	0.119194	0.042421	6145.610840
9675.710251	0.083368	0.042421	6222.809570
9675.711137	0.083514	0.042421	6296.803223
9675.712062	0.083463	0.042421	6374.006836
9675.712987	0.083518	0.042421	6451.261230
9675.713900	0.083500	0.042421	6527.496582
9675.714797	0.083448	0.042421	6602.350098
9675.715745	0.083474	0.042421	6681.483398
9675.716680	0.083489	0.042421	6759.545410
9675.717581	0.083518	0.042421	6834.795410
9676.765665	0.881821	0.047094	404.755951
9676.766576	1.313265	0.047094	1601.140747
9676.767521	1.320623	0.047094	2849.128906
9676.768435	1.293435	0.047094	4031.328613
9676.769357	1.264951	0.047094	5197.613281
9676.770257	0.919702	0.047094	6025.345215
9676.771213	0.115280	0.047094	6135.552246
9676.772105	0.083262	0.047094	6209.821777
9676.772998	0.083445	0.047094	6284.337891
9676.773946	0.083511	0.047094	6363.505859
9676.774841	0.083514	0.047094	6438.251465
9676.775755	0.083430	0.047094	6514.506836
9676.776645	0.083478	0.047094	6588.802246
9676.777575	0.083463	0.047094	6666.422852
9676.778486	0.083474	0.047094	6742.467773
9676.779404	0.083463	0.047094	6819.086914
9677.748679	0.856783	0.042868	371.844025
9677.749619	1.310643	0.042868	1603.848755
9677.750538	1.321201	0.042868	2818.032715
9677.751444	1.294274	0.042868	3990.644775
9677.752339	1.266727	0.042868	5124.365723
9677.753305	0.925657	0.042868	6018.550293
9677.754198	0.123768	0.042868	6129.075195
9677.755100	0.083350	0.042868	6204.256348
9677.755990	0.083569	0.042868	6278.632812
9677.756939	0.083639	0.042868	6358.006348
9677.757845	0.083500	0.042868	6433.657227
9677.758742	0.083448	0.042868	6508.510742
9677.759664	0.083558	0.042868	6585.551758
9677.760565	0.083533	0.042868	6660.814941
9677.761464	0.083441	0.042868	6735.828613
9677.762351	0.083507	0.042868	6809.899414
9678.809555	0.864141	0.046147	382.814301
9678.810459	1.311310	0.046147	1568.238403
9678.811388	1.321666	0.046147	2796.066406
9678.812337	1.293790	0.046147	4023.873291
9678.813261	1.264856	0.046147	5192.600098
9678.814165	0.924221	0.046147	6028.096191
9678.815120	0.118850	0.046147	6141.598145
9678.816053	0.083364	0.046147	6219.376953
9678.816956	0.083412	0.046147	6294.697754
9678.817875	0.083448	0.046147	6371.386719
9678.818813	0.083474	0.046147	6449.685547
9678.819727	0.083496	0.046147	6526.000977
9678.820625	0.083463	0.046147	6600.950684
9678.821561	0.083463	0.046147	6679.072266
9678.822490	0.083445	0.046147	6756.592285
9678.823412	0.083492	0.046147	6833.572266
9679.790553	0.870560	0.043247	384.787659
9679.791458	1.311288	0.043247	1571.503174
9679.792354	1.322399	0.043247	2756.372559
9679.793310	1.295186	0.043247	3994.569824
9679.794221	1.266152	0.043247	5148.034668
9679.795128	0.963962	0.043247	6022.348633
9679.796016	0.135513	0.043247	6142.684082
9679.796952	0.083335	0.043247	6220.685547
9679.797863	0.083441	0.043247	6296.700684
9679.798766	0.083467	0.043247	6372.071289
9679.799663	0.083518	0.043247	6446.986816
9679.800615	0.083606	0.043247	6526.579590
9679.801518	0.083514	0.043247	6601.993164
9679.802413	0.083467	0.043247	6676.695801
9679.803349	0.083533	0.043247	6754.882324
9679.804256	0.083514	0.043247	6830.629883
9680.853465	0.874501	0.048842	390.027313
9680.854387	1.312921	0.048842	1600.540649
9680.855298	1.321439	0.048842	2804.371582
9680.856254	1.293549	0.048842	4041.003906
9680.857167	1.265145	0.048842	5196.081543
9680.858077	0.922137	0.048842	6035.226562
9680.858962	0.125402	0.048842	6146.207031
9680.859894	0.083511	0.048842	6224.039062
9680.860804	0.083547	0.048842	6300.067383
9680.861701	0.083525	0.048842	6374.989746
9680.862632	0.083536	0.048842	6452.762207
9680.863541	0.083621	0.048842	6528.773437
9680.864434	0.083522	0.048842	6603.358398
9680.865326	0.083511	0.048842	6677.850098
9680.866269	0.083639	0.048842	6756.721680
9680.867174	0.083551	0.048842	6832.335449
9681.836500	0.865906	0.043609	380.998535
9681.837428	1.311031	0.043609	1597.635742
9681.838386	1.320242	0.043609	2862.427246
9681.839306	1.293120	0.043609	4052.097656
9681.840200	1.265398	0.043609	5183.363281
9681.841163	0.870817	0.043609	6021.959961
9681.842086	0.110607	0.043609	6124.049805
9681.843001	0.083357	0.043609	6200.321289
9681.843897	0.083448	0.043609	6275.091309
9681.844848	0.083467	0.043609	6354.468262
9681.845784	0.083522	0.043609	6432.644531
9681.846682	0.083518	0.043609	6507.643555
9681.847597	0.083511	0.043609	6584.055664
9681.848545	0.083416	0.043609	6663.133789
9681.849462	0.083569	0.043609	6739.767090
9681.850353	0.083474	0.043609	6814.142578
9682.900432	0.864467	0.046047	378.636353
9682.901338	1.310918	0.046047	1566.328003
9682.902233	1.322296	0.046047	2749.783203
9682.903185	1.294948	0.046047	3982.573242
9682.904108	1.266229	0.046047	5151.302734
9682.905020	0.960754	0.046047	6027.510742
9682.905907	0.134352	0.046047	6146.680664
9682.906845	0.083448	0.046047	6224.955566
9682.907749	0.083463	0.046047	6300.406250
9682.908638	0.083481	0.046047	6374.621094
9682.909569	0.083544	0.046047	6452.400391
9682.910470	0.083522	0.046047	6527.653320
9682.911387	0.083511	0.046047	6604.232910
9682.912280	0.083558	0.046047	6678.850586
9682.913231	0.083555	0.046047	6758.311035
9682.914140	0.083544	0.046047	6834.252441
9683.877340	0.873131	0.047054	391.162720
9683.878241	1.311537	0.047054	1572.857422
9683.879208	1.320439	0.047054	2849.722412
9683.880130	1.293212	0.047054	4042.063477
9683.881025	1.265464	0.047054	5174.653320
9683.881961	0.898466	0.047054	6015.617187
9683.882901	0.114910	0.047054	6123.632324
9683.883811	0.083405	0.047054	6199.530273
9683.884708	0.083536	0.047054	6274.462402
9683.885662	0.083518	0.047054	6354.138672
9683.886601	0.083544	0.047054	6432.586426
9683.887500	0.083529	0.047054	6507.679199
9683.888416	0.083507	0.047054	6584.171875
9683.889349	0.083566	0.047054	6662.138672
9683.890262	0.083514	0.047054	6738.387207
9683.891153	0.083485	0.047054	6812.772461
9684.945385	0.875991	0.042683	410.839874
9684.946292	1.313826	0.042683	1602.479614
9684.947225	1.320948	0.042683	2834.924561
9684.948166	1.293142	0.042683	4051.771240
9684.949093	1.264219	0.042683	5223.702148
9684.949999	0.898773	0.042683	6037.990723
9684.950950	0.114071	0.042683	6146.472168
9684.951883	0.083353	0.042683	6224.240723
9684.952783	0.083529	0.042683	6299.416992
9684.953694	0.083459	0.042683	6375.448730
9684.954626	0.083503	0.042683	6453.273926
9684.955561	0.083562	0.042683	6531.404297
9684.956460	0.083551	0.042683	6606.516602
9684.957373	0.083485	0.042683	6682.738281
9684.958312	0.083467	0.042683	6761.113770
9684.959228	0.083503	0.042683	6837.603027
9685.919226	0.878101	0.047694	425.878784
9685.920146	1.315280	0.047694	1635.936035
9685.921054	1.320765	0.047694	2835.190918
9685.921950	1.294233	0.047694	3994.823975
9685.922892	1.264633	0.047694	5186.107910
9685.923822	0.900084	0.047694	6023.186035
9685.924728	0.118455	0.047694	6130.505859
9685.925617	0.083298	0.047694	6204.558105
9685.926570	0.083496	0.047694	6284.129883
9685.927474	0.083361	0.047694	6359.487793
9685.928364	0.083500	0.047694	6433.802734
9685.929292	0.083525	0.047694	6511.314453
9685.930197	0.083419	0.047694	6586.808594
9685.931094	0.083470	0.047694	6661.681641
9685.931979	0.083496	0.047694	6735.575684
9685.932916	0.083467	0.047694	6813.784180
9686.991340	0.870106	0.042739	410.690125
9686.992280	1.316034	0.042739	1647.761963
9686.993213	1.319949	0.042739	2879.274170
9686.994114	1.293095	0.042739	4044.352295
9686.995074	1.263472	0.042739	5257.285156
9686.996019	0.814504	0.042739	6026.991699
9686.996933	0.104901	0.042739	6122.871094
9686.997820	0.083496	0.042739	6196.932129
9686.998764	0.083427	0.042739	6275.686523
9686.999692	0.083470	0.042739	6353.146973
9687.000593	0.083536	0.042739	6428.413086
9687.001513	0.083540	0.042739	6505.270020
9687.002450	0.083474	0.042739	6583.485352
9687.003371	0.083492	0.042739	6660.381836
9687.004260	0.083492	0.042739	6734.606445
9687.005212	0.083547	0.042739	6814.143555
9687.961063	0.876995	0.046877	399.909546
9687.961969	1.312376	0.046877	1588.921753
9687.962863	1.321783	0.046877	2770.596191
9687.963820	1.294197	0.046877	4009.142578
9687.964732	1.265548	0.046877	5163.322266
9687.965638	0.949607	0.046877	6023.666016
9687.966562	0.129752	0.046877	6143.557129
9687.967502	0.083339	0.046877	6221.895508
9687.968416	0.083503	0.046877	6298.217773
9687.969308	0.083467	0.046877	6372.669922
9687.970245	0.083478	0.046877	6450.888672
9687.971167	0.083474	0.046877	6527.852051
9687.972086	0.083544	0.046877	6604.628906
9687.972975	0.083551	0.046877	6678.905762
9687.973937	0.083503	0.046877	6759.235840
9687.974860	0.083522	0.046877	6836.326172
9689.037274	0.874600	0.045624	396.193604
9689.038170	1.311519	0.045624	1571.314209
9689.039108	1.321611	0.045624	2810.985596
9689.040026	1.294647	0.045624	3999.471680
9689.040928	1.266321	0.045624	5141.693359
9689.041825	0.970833	0.045624	6012.530273
9689.042769	0.127324	0.045624	6132.724121
9689.043662	0.083295	0.045624	6207.106445
9689.044549	0.083500	0.045624	6281.170898
9689.045467	0.083463	0.045624	6357.790039
9689.046397	0.083525	0.045624	6435.468750
9689.047303	0.083364	0.045624	6510.996582
9689.048193	0.083507	0.045624	6585.317871
9689.049124	0.083507	0.045624	6663.062988
9689.050028	0.083423	0.045624	6738.477051
9689.050921	0.083478	0.045624	6813.022461
9690.003949	0.876694	0.046490	416.429810
9690.004903	1.315734	0.046490	1671.639771
9690.005826	1.319956	0.046490	2889.959229
9690.006717	1.293146	0.046490	4042.152100
9690.007642	1.264493	0.046490	5211.808594
9690.008593	0.858369	0.046490	6028.117676
9690.009512	0.108435	0.046490	6127.769531
9690.010405	0.083478	0.046490	6202.315430
9690.011329	0.083470	0.046490	6279.441895
9690.012256	0.083492	0.046490	6356.839355
9690.013172	0.083489	0.046490	6433.314941
9690.014061	0.083492	0.046490	6507.539551
9690.015013	0.083467	0.046490	6587.000000
9690.015951	0.083459	0.046490	6665.285156
9690.016845	0.083467	0.046490	6739.904297
9690.017764	0.083500	0.046490	6816.640625
9691.083210	0.871930	0.041898	384.521088
9691.084180	1.315825	0.041898	1660.871582
9691.085107	1.320238	0.041898	2884.732178
9691.085999	1.293611	0.041898	4038.633301
9691.086921	1.264731	0.041898	5204.715820
9691.087878	0.868550	0.041898	6035.917969
9691.088799	0.111460	0.041898	6138.572754
9691.089688	0.083401	0.041898	6212.716309
9691.090634	0.083492	0.041898	6291.700195
9691.091553	0.083522	0.041898	6368.456543
9691.092452	0.083529	0.041898	6443.549316
9691.093362	0.083511	0.041898	6519.543945
9691.094300	0.083577	0.041898	6597.938965
9691.095214	0.083485	0.041898	6674.244141
9691.096106	0.083522	0.041898	6748.745605
9691.097048	0.083470	0.041898	6827.375000
9692.045832	0.898315	0.044540	450.954346
9692.046740	1.315613	0.044540	1645.530762
9692.047667	1.320293	0.044540	2869.442383
9692.048562	1.293384	0.044540	4027.020752
9692.049504	1.264032	0.044540	5217.738770
9692.050425	0.870791	0.044540	6019.737305
9692.051347	0.111562	0.044540	6122.598145
9692.052242	0.083456	0.044540	6197.291016
9692.053199	0.083525	0.044540	6277.224609
9692.054099	0.083610	0.044540	6352.473145
9692.054986	0.083624	0.044540	6426.647949
9692.055927	0.083562	0.044540	6505.279785
9692.056827	0.083533	0.044540	6580.458984
9692.057756	0.083584	0.044540	6658.108398
9692.058643	0.083555	0.044540	6732.221191
9692.059576	0.083555	0.044540	6810.177734
9693.128195	0.896744	0.041382	443.888489
9693.129116	1.316492	0.041382	1656.377441
9693.130025	1.320414	0.041382	2856.633789
9693.130919	1.293871	0.041382	4013.354248
9693.131866	1.264611	0.041382	5210.940430
9693.132786	0.888739	0.041382	6028.580078
9693.133681	0.117861	0.041382	6134.065918
9693.134585	0.083441	0.041382	6209.496582
9693.135505	0.083525	0.041382	6286.339844
9693.136416	0.083525	0.041382	6362.431641
9693.137314	0.083511	0.041382	6437.424316
9693.138237	0.083529	0.041382	6514.521484
9693.139145	0.083569	0.041382	6590.402344
9693.140049	0.083496	0.041382	6665.882812
9693.140935	0.083434	0.041382	6739.805176
9693.141881	0.083533	0.041382	6818.827148
9694.089680	0.858772	0.045104	378.718445
9694.090625	1.313753	0.045104	1620.214600
9694.091540	1.321080	0.045104	2829.002930
9694.092442	1.294446	0.045104	3996.593018
9694.093357	1.266431	0.045104	5155.376953
9694.094295	0.911158	0.045104	6010.043457
9694.095234	0.116554	0.045104	6119.487793
9694.096134	0.083405	0.045104	6194.551758
9694.097053	0.083525	0.045104	6271.311523
9694.097990	0.083448	0.045104	6349.502930
9694.098909	0.083544	0.045104	6426.279785
9694.099794	0.083456	0.045104	6500.138184
9694.100738	0.083492	0.045104	6578.955078
9694.101671	0.083438	0.045104	6656.802246
9694.102562	0.083533	0.045104	6731.229980
9694.103481	0.083599	0.045104	6808.057129
9695.173083	0.864891	0.041438	384.876648
9695.173986	1.311464	0.041438	1569.128418
9695.174880	1.322329	0.041438	2751.290527
9695.175816	1.295508	0.041438	3963.885742
9695.176744	1.266072	0.041438	5138.800293
9695.177668	0.944963	0.041438	6011.946289
9695.178558	0.130756	0.041438	6128.318848
9695.179495	0.083328	0.041438	6206.396973
9695.180417	0.083401	0.041438	6283.292480
9695.181325	0.083470	0.041438	6359.083496
9695.182216	0.083478	0.041438	6433.462402
9695.183159	0.083463	0.041438	6512.167969
9695.184078	0.083463	0.041438	6588.870605
9695.184976	0.083463	0.041438	6663.820312
9695.185898	0.083463	0.041438	6740.773437
9695.186808	0.083445	0.041438	6816.708008
9696.133576	0.852817	0.045970	369.269928
9696.134520	1.310980	0.045970	1606.835205
9696.135444	1.321029	0.045970	2827.466064
9696.136349	1.294098	0.045970	3998.624512
9696.137245	1.266211	0.045970	5133.149414
9696.138207	0.924426	0.045970	6022.447266
9696.139106	0.122666	0.045970	6132.724121
9696.140009	0.083441	0.045970	6208.071289
9696.140898	0.083551	0.045970	6282.348145
9696.141845	0.083503	0.045970	6361.425781
9696.142756	0.083489	0.045970	6437.483887
9696.143649	0.083544	0.045970	6512.088379
9696.144581	0.083588	0.045970	6589.992187
9696.145481	0.083624	0.045970	6665.253906
9696.146383	0.083459	0.045970	6740.534180
9696.147270	0.083529	0.045970	6814.624512
9697.216999	0.891577	0.042018	418.149689
9697.217933	1.315631	0.042018	1646.949097
9697.218829	1.321080	0.042018	2830.637207
9697.219751	1.293959	0.042018	4023.667236
9697.220691	1.264691	0.042018	5212.477051
9697.221620	0.892375	0.042018	6041.493652
9697.222505	0.119542	0.042018	6147.288574
9697.223447	0.083328	0.042018	6225.783203
9697.224376	0.083492	0.042018	6303.347656
9697.225278	0.083500	0.042018	6378.664551
9697.226193	0.083558	0.042018	6455.120605
9697.227121	0.083500	0.042018	6532.608398
9697.228049	0.083463	0.042018	6610.062012
9697.228945	0.083489	0.042018	6684.868164
9697.229860	0.083478	0.042018	6761.250488
9697.230800	0.083470	0.042018	6839.712891
9698.177485	0.866114	0.044480	383.688721
9698.178462	1.311885	0.044480	1665.400146
9698.179374	1.320172	0.044480	2869.396973
9698.180285	1.293072	0.044480	4047.385986
9698.181182	1.264614	0.044480	5181.745117
9698.182156	0.862086	0.044480	6021.416992
9698.183060	0.111592	0.044480	6122.295898
9698.183985	0.083364	0.044480	6199.407715
9698.184874	0.083522	0.044480	6273.658691
9698.185817	0.083416	0.044480	6352.319336
9698.186712	0.083441	0.044480	6426.999023
9698.187601	0.083496	0.044480	6501.227051
9698.188547	0.083544	0.044480	6580.259277
9698.189440	0.083434	0.044480	6654.765625
9698.190354	0.083496	0.044480	6731.081055
9698.191249	0.083507	0.044480	6805.819824
